##TITLE= Mattson Instruments
##JCAMP_DX= 4.24
##OWNER= 
##ORIGIN= 
##DATA TYPE= INFRARED SPECTRUM
##YUNITS= % Transmittance
##XUNITS= 1/CM
##FIRSTX= 401.12365566
##FIRSTY= 42.96788406
##LASTX= 3999.66568195
##XFACTOR= 1.00000000
##YFACTOR= 0.00081448
##MINY= 10.05591392
##MAXY= 63.43236541
##DELTAX= 3.85695822
##NPOINTS= 934
##XYDATA= (X++(Y..Y))
401.12  52754 50764 51798 56590 62627 66945 
424.26  68979 69403 68257 65930 64382 65459 
447.40  68296 70191 69947 68185 64447 57867 
470.54  51877 52744 61275 71169 76686 77880 
493.69  77630 77455 77368 77200 76834 76281 
516.83  75826 75656 75540 75166 74580 74032 
539.97  73561 73075 72655 72279 71614 70665 
563.11  69586 67402 62998 58289 57571 62039 
586.25  67904 71276 72052 72071 72099 71877 
609.39  71497 71320 71275 71133 70909 70573 
632.54  70021 69387 68784 68021 67107 66304 
655.68  65358 63857 62177 60138 55936 49662 
678.82  46104 49766 58264 64898 66680 65816 
701.96  64665 63334 61600 59791 57713 54739 
725.10  50839 46479 42264 39442 39698 43360 
748.24  48385 51851 52374 50689 47884 43693 
771.39  37544 31436 29613 33463 38694 40052 
794.53  36731 31383 26936 26561 33056 45188 
817.67  57272 64656 67481 68140 67895 66982 
840.81  65676 64151 62374 60474 58671 56984 
863.95  55308 53573 51769 49992 48423 47168 
887.10  46193 45384 44662 44099 43871 44040 
910.24  44557 45513 47076 49154 51402 53572 
933.38  55626 57591 59497 61341 63043 64531 
956.52  65792 66720 67180 67394 67888 68815 
979.66  69726 70238 70508 70845 71292 71761 
1002.80  72228 72668 73011 73241 73395 73449 
1025.95  73278 72794 72218 72012 72167 71752 
1049.09  70044 68149 68083 69857 71181 70749 
1072.23  69591 68094 64744 59946 57754 61045 
1095.37  67027 70428 70300 69250 68382 67246 
1118.51  65832 64351 62611 60473 57916 54692 
1141.65  50625 45748 40183 35088 33352 37450 
1164.80  46323 55621 61371 62802 61555 58774 
1187.94  53888 47033 41537 41669 47681 55166 
1211.08  59832 61062 60471 59190 57476 55465 
1234.22  53277 50846 48097 45060 41777 38298 
1257.36  34771 31418 28495 26331 25232 25147 
1280.51  25510 25750 26015 27176 30003 34468 
1303.65  39843 45203 49807 53307 55782 57497 
1326.79  58619 59222 59412 59268 58789 58009 
1349.93  57027 55881 54536 52908 50835 48243 
1373.07  45275 41863 37762 33742 31661 32013 
1396.21  32889 33159 34859 40013 46815 51406 
1419.36  51743 47773 40189 31548 26646 28880 
1442.50  36418 43468 45744 44410 44251 47928 
1465.64  53392 57439 59532 60801 61516 61478 
1488.78  61434 62342 63964 65258 65723 65695 
1511.92  65547 65222 64650 64000 63261 62232 
1535.06  60967 59544 57782 55813 53699 50094 
1558.21  43731 36880 33897 35506 37932 38083 
1581.35  36664 36292 39089 45351 52638 57423 
1604.49  58575 57797 56785 55962 55430 55154 
1627.63  54628 53557 52244 50907 49413 47736 
1650.77  46008 44294 42646 41091 39489 37703 
1673.91  35771 33705 31356 28614 25520 22177 
1697.06  18748 15620 13382 12385 12346 12728 
1720.20  13547 15375 18483 22489 26850 31225 
1743.34  35364 39064 42295 45168 47780 50147 
1766.48  52188 53806 55078 56260 57511 58713 
1789.62  59708 60617 61724 63067 64353 65321 
1812.77  65971 66414 66696 66844 66930 67026 
1835.91  67147 67275 67405 67502 67453 67137 
1859.05  66646 66339 66568 67319 68206 68821 
1882.19  69060 69071 68991 68875 68769 68676 
1905.33  68549 68403 68303 68239 68241 68382 
1928.47  68391 67768 66719 66322 67165 68511 
1951.62  69357 69599 69686 69826 70007 70271 
1974.76  70611 70905 71080 71159 71170 71131 
1997.90  71078 71025 70975 70935 70891 70802 
2021.04  70651 70453 70231 69998 69743 69444 
2044.18  69093 68705 68285 67835 67389 66990 
2067.32  66635 66312 66038 65845 65753 65816 
2090.47  66095 66566 67098 67564 67917 68166 
2113.61  68329 68421 68443 68396 68291 68143 
2136.75  67957 67762 67619 67558 67533 67478 
2159.89  67373 67244 67112 66971 66808 66621 
2183.03  66424 66219 66003 65781 65567 65370 
2206.18  65189 65033 64936 64909 64916 64897 
2229.32  64827 64710 64557 64367 64151 63943 
2252.46  63789 63718 63717 63741 63739 63689 
2275.60  63594 63463 63302 63130 62972 62824 
2298.74  62653 62428 62131 61755 61332 60960 
2321.88  60728 60620 60529 60376 60179 59995 
2345.03  59816 59581 59280 58995 58821 58775 
2368.17  58795 58806 58768 58673 58533 58358 
2391.31  58149 57899 57612 57299 56974 56642 
2414.45  56299 55954 55627 55332 55062 54802 
2437.59  54545 54288 54033 53783 53544 53312 
2460.73  53067 52787 52467 52116 51740 51332 
2483.88  50879 50379 49835 49248 48618 47945 
2507.02  47248 46542 45835 45153 44539 44026 
2530.16  43608 43259 42965 42725 42536 42405 
2553.30  42375 42530 42931 43568 44349 45140 
2576.44  45820 46298 46537 46546 46363 46018 
2599.58  45535 44954 44345 43768 43235 42712 
2622.73  42162 41573 40969 40405 39938 39597 
2645.87  39378 39268 39251 39296 39373 39495 
2669.01  39728 40154 40808 41635 42498 43232 
2692.15  43724 43958 43994 43912 43757 43536 
2715.29  43256 42950 42651 42360 42065 41767 
2738.44  41483 41220 40987 40796 40645 40497 
2761.58  40307 40053 39751 39419 39060 38672 
2784.72  38264 37858 37467 37113 36834 36654 
2807.86  36534 36388 36153 35827 35450 35055 
2831.00  34660 34282 33947 33667 33434 33219 
2854.14  33002 32802 32645 32531 32422 32282 
2877.29  32097 31861 31584 31286 31004 30768 
2900.43  30583 30428 30279 30142 30043 29998 
2923.57  30016 30105 30279 30547 30908 31354 
2946.71  31863 32394 32872 33199 33296 33138 
2969.85  32765 32267 31741 31262 30883 30642 
2992.99  30527 30463 30369 30230 30078 29937 
3016.14  29806 29675 29544 29429 29355 29335 
3039.28  29366 29435 29541 29693 29884 30071 
3062.42  30202 30243 30123 29764 29252 28885 
3085.56  28904 29247 29678 30066 30420 30768 
3108.70  31130 31528 31954 32359 32702 32961 
3131.85  33121 33203 33270 33391 33593 33874 
3154.99  34217 34610 35051 35541 36063 36583 
3178.13  37070 37507 37905 38302 38731 39199 
3201.27  39691 40196 40707 41222 41738 42250 
3224.41  42749 43244 43750 44273 44807 45358 
3247.55  45940 46544 47153 47764 48389 49024 
3270.70  49648 50257 50857 51455 52052 52649 
3293.84  53246 53840 54433 55022 55590 56118 
3316.98  56607 57066 57494 57888 58256 58609 
3340.12  58942 59245 59516 59758 59965 60138 
3363.26  60306 60506 60752 61045 61387 61764 
3386.40  62161 62571 62989 63398 63770 64101 
3409.55  64397 64661 64890 65088 65259 65417 
3432.69  65569 65712 65837 65947 66048 66135 
3455.83  66200 66258 66326 66402 66469 66528 
3478.97  66594 66667 66730 66775 66810 66841 
3502.11  66867 66882 66883 66875 66868 66875 
3525.25  66901 66946 67001 67052 67082 67096 
3548.40  67108 67129 67154 67168 67177 67198 
3571.54  67235 67271 67292 67298 67302 67311 
3594.68  67321 67322 67313 67303 67303 67314 
3617.82  67325 67316 67281 67250 67250 67258 
3640.96  67225 67152 67086 67056 67046 67032 
3664.11  67001 66952 66903 66877 66862 66826 
3687.25  66776 66753 66766 66771 66730 66652 
3710.39  66579 66534 66508 66472 66406 66310 
3733.53  66190 66045 65880 65729 65648 65661 
3756.67  65724 65780 65817 65849 65865 65841 
3779.81  65784 65729 65686 65631 65546 65451 
3802.96  65377 65324 65267 65204 65163 65170 
3826.10  65195 65174 65098 65029 64999 64943 
3849.24  64813 64673 64601 64557 64472 64383 
3872.38  64366 64394 64389 64343 64321 64355 
3895.52  64409 64445 64459 64466 64459 64426 
3918.66  64372 64321 64288 64267 64241 64208 
3941.81  64179 64158 64128 64079 64026 63978 
3964.95  63917 63847 63799 63793 63802 63794 
3988.09  63766 63738 63716 63693 
##END= 
