##TITLE= Mattson Instruments
##JCAMP_DX= 4.24
##OWNER= 
##ORIGIN= 
##DATA TYPE= INFRARED SPECTRUM
##YUNITS= % Transmittance
##XUNITS= 1/CM
##FIRSTX= 401.12781972
##FIRSTY= 22.07190132
##LASTX= 3999.70720246
##XFACTOR= 1.00000000
##YFACTOR= 0.00071520
##MINY= 0.00000102
##MAXY= 46.87004089
##DELTAX= 3.85699826
##NPOINTS= 934
##XYDATA= (X++(Y..Y))
401.12  30861 31684 31575 30266 28019 26768 
424.26  27946 30094 31402 31371 30370 28847 
447.41  26830 23946 20143 16714 15322 16104 
470.55  18326 21450 24962 28256 30861 32592 
493.69  33467 33675 33440 33153 33203 33680 
516.83  34391 35039 35411 35494 35394 35183 
539.97  34887 34529 34138 33732 33299 32815 
563.12  32250 31598 30861 30023 28945 27536 
586.26  25906 24441 23595 23375 23059 21795 
609.40  19706 18148 18427 20395 22710 24286 
632.54  25015 25333 25595 25900 26321 26973 
655.68  27776 28402 28667 28765 28983 29194 
678.83  28884 27525 25022 22144 20284 20647 
701.97  23326 27175 30861 33673 35325 35708 
725.11  35316 35259 36059 36893 36635 35185 
748.25  33336 31974 31699 32530 33848 35217 
771.39  37017 39562 42157 43873 44646 44950 
794.54  45000 44822 44525 44165 43747 43324 
817.68  42893 42334 41583 40494 38641 35832 
840.82  32786 30861 30861 33383 37002 39857 
863.96  40736 39738 37375 34009 30861 30861 
887.10  33404 37499 40366 41147 40721 39422 
910.25  36666 33006 30861 32096 35217 37375 
933.39  37410 36046 33853 30861 27628 24698 
956.53  22368 21660 24421 30861 38314 43789 
979.67  46589 47702 47967 47680 47039 46174 
1002.81  45061 43638 41911 39833 37176 33888 
1025.96  30861 29583 30861 33487 35681 35995 
1049.10  33994 30861 29443 30861 33890 37182 
1072.24  39805 40962 39954 37913 37486 39691 
1095.38  42764 44692 45260 45186 44766 43962 
1118.52  42952 42106 41651 41487 41316 40980 
1141.67  40581 40250 39954 39598 39129 38524 
1164.81  37780 36891 35760 34257 32498 30861 
1187.95  29552 28145 26180 23806 21822 20997 
1211.09  21282 21661 21194 20445 21136 23855 
1234.23  26984 28543 28102 26355 24049 22093 
1257.38  21631 23125 25815 28307 29345 28660 
1280.52  27632 28276 30861 33431 34053 32893 
1303.66  30861 27780 23304 18635 16280 17315 
1326.80  20017 22083 23079 24171 25846 26846 
1349.94  26066 24110 22656 22694 23510 23804 
1373.09  23101 21590 19419 16583 13305 10245 
1396.23  8261 8100 9943 12869 15607 17540 
1419.37  18622 19087 19365 19922 21009 22416 
1442.51  23835 25276 26847 28696 30861 32594 
1465.65  33538 33756 33597 33445 33322 32960 
1488.80  32101 30861 29821 28759 27369 26076 
1511.94  25668 25984 26639 27470 28065 28044 
1535.08  27242 25462 23255 21579 20161 18348 
1558.22  15963 13744 11774 9332 6295 3589 
1581.36  1887 881 270 0 121 814 
1604.51  2146 3861 5678 7502 9085 10038 
1627.65  10199 9473 8257 7983 9500 12576 
1650.79  16837 21030 24065 26372 28553 30861 
1673.93  32969 34656 36165 37879 39516 40637 
1697.07  41424 42539 43954 45017 45685 46395 
1720.22  47407 48308 48809 49079 49560 50290 
1743.36  50959 51576 52317 53118 53804 54323 
1766.50  54705 55092 55686 56424 57034 57386 
1789.64  57529 57636 57908 58368 58869 59340 
1812.78  59850 60358 60669 60743 60837 61136 
1835.93  61467 61674 61876 62252 62719 63055 
1859.07  63155 63063 62934 62946 63137 63378 
1882.21  63544 63620 63662 63695 63679 63579 
1905.35  63418 63258 63149 63101 63144 63305 
1928.49  63518 63644 63629 63562 63582 63735 
1951.64  63962 64161 64260 64266 64259 64330 
1974.78  64498 64706 64880 65015 65172 65362 
1997.92  65508 65534 65441 65285 65125 65003 
2021.06  64921 64848 64736 64552 64288 63966 
2044.20  63647 63404 63266 63198 63155 63147 
2067.35  63205 63307 63383 63387 63306 63164 
2090.49  63009 62877 62761 62636 62488 62327 
2113.63  62190 62117 62105 62120 62126 62096 
2136.77  62026 61943 61894 61895 61597 61299 
2159.91  61001 60703 60406 60108 59810 59512 
2183.06  59214 58916 58618 58321 58023 57725 
2206.20  57427 57129 56831 56533 56236 55938 
2229.34  55640 55342 55044 54746 54448 54151 
2252.48  53853 53555 53257 52959 52661 52363 
2275.62  52066 51768 51470 51172 50874 50576 
2298.77  50279 49981 49683 49385 49087 48789 
2321.91  48491 48194 47896 47598 47300 47002 
2345.05  46704 46406 46109 45811 45513 45215 
2368.19  44917 44619 44321 44024 43726 43428 
2391.33  43130 42832 42534 42236 41939 41641 
2414.48  41343 41045 40747 40449 40151 39854 
2437.62  39556 39258 38960 38662 38364 38066 
2460.76  37769 37471 37173 36875 36577 36279 
2483.90  35981 35684 35386 35088 34790 34492 
2507.04  34415 34432 34488 34525 34471 34283 
2530.19  33975 33608 33250 32914 32569 32185 
2553.33  31762 31315 30861 30361 29890 29439 
2576.47  28990 28544 28097 27637 27171 26762 
2599.61  26522 26534 26808 27262 27750 28132 
2622.75  28343 28420 28459 28556 28744 28990 
2645.90  29247 29487 29699 29858 29931 29881 
2669.04  29695 29378 28938 28412 27877 27393 
2692.18  26960 26523 26063 25613 25208 24838 
2715.32  24493 24196 23967 23793 23651 23556 
2738.46  23547 23628 23755 23897 24069 24290 
2761.61  24559 24874 25242 25658 26094 26529 
2784.75  26959 27382 27772 28097 28346 28538 
2807.89  28683 28765 28757 28645 28446 28207 
2831.03  27970 27745 27515 27267 26995 26695 
2854.17  26369 26027 25674 25312 24943 24562 
2877.32  24147 23680 23167 22637 22116 21598 
2900.46  21070 20546 20052 19590 19160 18800 
2923.60  18528 18311 18122 17926 17538 16726 
2946.74  15614 14810 14909 15887 17166 18215 
2969.88  18885 19183 19063 18654 18380 18572 
2993.03  19107 19661 20151 20692 21283 21782 
3016.17  22117 22333 22441 22358 22058 21726 
3039.31  21664 21954 22364 22620 22668 22608 
3062.45  22529 22482 22487 22501 22450 22312 
3085.59  22101 21812 21433 20952 20355 19611 
3108.74  18686 17550 16165 14526 12697 10866 
3131.88  9325 8385 8238 8880 10117 11631 
3155.02  13111 14382 15420 16267 16966 17542 
3178.16  18002 18349 18607 18799 18929 19004 
3201.30  19038 19048 19041 19009 18926 18780 
3224.45  18590 18367 18080 17706 17271 16799 
3247.59  16272 15664 14975 14225 13450 12697 
3270.73  11982 11298 10695 10276 10103 10151 
3293.87  10363 10714 11185 11725 12263 12787 
3317.01  13334 13903 14437 14904 15341 15776 
3340.16  16171 16496 16776 17055 17321 17541 
3363.30  17727 17920 18129 18338 18527 18708 
3386.44  18906 19149 19422 19671 19875 20075 
3409.58  20314 20584 20865 21174 21544 21974 
3432.72  22401 22767 23100 23477 23902 24297 
3455.87  24654 25039 25460 25862 26241 26659 
3479.01  27124 27594 28061 28562 29088 29566 
3502.15  29971 30379 30861 31279 31618 31887 
3525.29  32204 32641 33132 33552 33839 34055 
3548.43  34377 34854 35280 35454 35508 35836 
3571.58  36479 37051 37339 37449 37594 37852 
3594.72  38173 38523 38865 39058 39046 39094 
3617.86  39451 39874 40047 40173 40633 41151 
3641.00  41224 40758 40313 40571 41197 41579 
3664.14  41488 40925 40308 40327 40715 40794 
3687.29  40525 40409 40662 40815 40542 40012 
3710.43  39677 39645 39626 39437 39100 38685 
3733.57  38326 38172 38111 37956 37858 38133 
3756.71  38599 38895 38954 38948 38987 38979 
3779.85  38853 38717 38640 38455 37967 37339 
3803.00  37139 37451 37669 37412 36891 36718 
3826.14  36866 36747 36183 35725 35818 35929 
3849.28  35682 35402 35471 35498 35156 34760 
3872.42  34714 34789 34648 34437 34451 34557 
3895.56  34421 34039 33807 33888 33957 33839 
3918.71  33660 33572 33547 33554 33587 33520 
3941.85  33259 32957 32818 32795 32729 32599 
3964.99  32469 32325 32118 31865 31634 31445 
3988.13  31269 31096 30959 30861 
##END= 
