##TITLE= Mattson Instruments
##JCAMP_DX= 4.24
##OWNER= 
##ORIGIN= 
##DATA TYPE= INFRARED SPECTRUM
##YUNITS= % Transmittance
##XUNITS= 1/CM
##FIRSTX= 401.12365566
##FIRSTY= 76.33126068
##LASTX= 3999.66568195
##XFACTOR= 1.00000000
##YFACTOR= 0.00042089
##MINY= 49.56846618
##MAXY= 77.15144348
##DELTAX= 3.85695822
##NPOINTS= 934
##XYDATA= (X++(Y..Y))
401.12  181354 182305 182788 182155 180749 179876 
424.26  180265 181356 182373 182897 183006 183121 
447.40  183303 183194 182777 182514 182575 182632 
470.54  182376 181659 180551 179654 179802 181017 
493.69  182268 182755 182681 182584 182522 182284 
516.83  181872 181364 180631 179661 178949 179126 
539.97  180190 181415 182098 182224 182189 182111 
563.11  181863 181566 181365 181026 180471 179962 
586.25  178969 176323 172749 171329 173682 177520 
609.39  179680 179692 178910 177796 175915 173810 
632.54  173004 173720 173930 172127 170056 170595 
655.68  173520 175912 176351 175868 175745 175854 
678.82  175649 175101 174400 173561 172505 171223 
701.96  169786 168375 167443 167480 168552 170339 
725.10  172509 174489 175400 174972 174077 173723 
748.24  174008 174298 174028 173198 172090 170177 
771.39  166279 161073 158032 159596 163844 167083 
794.53  167921 166894 164502 162025 162103 165820 
817.67  170625 173145 172903 171755 171048 170986 
840.81  171597 172620 173371 173583 173021 170211 
863.95  164319 158663 158587 164680 171752 175527 
887.10  176585 177042 177295 177094 176777 176444 
910.24  175832 174985 173790 171832 169392 166591 
933.38  161620 153311 145415 143569 147897 153579 
956.52  158423 164189 170821 175145 175503 173441 
979.66  171202 170367 171696 174291 176285 177004 
1002.80  176974 176408 175275 173486 169917 163808 
1025.95  158001 157309 162266 168072 170799 170661 
1049.09  168836 165273 160841 158362 159606 162815 
1072.23  164512 163313 161307 161189 162432 162104 
1095.37  159799 158780 161042 164521 166577 167062 
1118.51  166777 165725 163646 160282 155688 151730 
1141.65  151239 154078 156691 156891 156112 155883 
1164.80  155318 153204 149997 147120 146154 148432 
1187.94  153528 158496 160373 159314 157880 157188 
1211.08  155242 150034 143574 140843 143986 149387 
1234.22  152059 150843 147089 140779 131947 124455 
1257.36  123299 127585 130422 127217 120893 117769 
1280.51  121033 129448 139808 149038 155487 159547 
1303.65  162666 165549 167699 168300 166778 163081 
1326.79  158355 154784 153894 155045 156201 156460 
1349.93  156829 158548 161603 164784 166993 168122 
1373.07  168302 167266 165157 162919 161082 159076 
1396.21  156249 152752 148884 144399 139013 133611 
1419.36  130985 133220 138516 143449 145827 146213 
1442.50  147080 149210 151118 151118 149267 147513 
1465.64  147023 147678 148977 149666 148196 143296 
1488.78  134706 126044 122499 125472 134128 144724 
1511.92  151618 153920 154000 154146 155436 157155 
1535.06  158312 159057 160648 162771 163945 163673 
1558.21  162614 161862 161225 160232 159070 157987 
1581.35  156886 155911 155611 156245 157454 158846 
1604.49  160287 161619 162672 163560 164639 165967 
1627.63  167173 168067 168929 169978 170818 171023 
1650.77  171012 171843 173249 174208 174501 174669 
1673.91  175080 175311 175159 175269 175863 176103 
1697.06  175511 175090 175796 176602 176575 176109 
1720.20  176266 176787 176656 175626 174647 174635 
1743.34  175244 175940 176581 177136 177512 177607 
1766.48  177395 177053 176956 177225 177512 177457 
1789.62  177058 176671 176623 176867 177121 177223 
1812.77  177281 177382 177324 176946 176548 176418 
1835.91  176186 175485 174805 174956 175767 176406 
1859.05  176486 176174 175801 175627 175682 175739 
1882.19  175594 175300 175073 175002 174989 174910 
1905.33  174729 174497 174261 174027 173832 173748 
1928.47  173747 173681 173461 173156 172912 172780 
1951.62  172666 172453 172157 171924 171858 171917 
1974.76  171998 172027 171960 171778 171540 171334 
1997.90  171172 170996 170768 170512 170282 170101 
2021.04  169939 169738 169483 169227 169026 168863 
2044.18  168679 168452 168211 167989 167803 167654 
2067.32  167513 167328 167085 166810 166519 166211 
2090.47  165893 165589 165304 165010 164684 164329 
2113.61  163969 163634 163360 163163 163008 162837 
2136.75  162637 162438 162249 162041 161789 161516 
2159.89  161261 161014 160735 160426 160136 159887 
2183.03  159637 159342 159002 158638 158272 157936 
2206.18  157652 157408 157172 156929 156700 156512 
2229.32  156356 156185 155964 155706 155434 155156 
2252.46  154890 154664 154466 154248 154004 153791 
2275.60  153646 153540 153415 153247 153139 153031 
2298.74  152923 152815 152708 152600 152492 152384 
2321.88  152276 152169 152061 151953 151845 151737 
2345.03  151630 151522 151414 151306 151199 151091 
2368.17  150983 150875 150767 150660 150552 150444 
2391.31  150336 150228 150121 150013 149905 149778 
2414.45  149642 149519 149403 149280 149148 149014 
2437.59  148883 148787 148779 148881 149040 149161 
2460.73  149194 149166 149135 149138 149187 149267 
2483.88  149327 149295 149128 148832 148446 148014 
2507.02  147571 147145 146775 146518 146427 146506 
2530.16  146703 146964 147269 147587 147878 148139 
2553.30  148413 148700 148932 149048 149051 148969 
2576.44  148811 148600 148408 148308 148298 148315 
2599.58  148322 148325 148320 148262 148110 147853 
2622.73  147501 147079 146635 146218 145840 145483 
2645.87  145118 144720 144273 143776 143254 142737 
2669.01  142228 141718 141220 140764 140365 140023 
2692.15  139749 139550 139408 139301 139253 139303 
2715.29  139441 139606 139752 139893 140061 140244 
2738.44  140397 140507 140625 140810 141068 141358 
2761.58  141645 141924 142201 142473 142740 143014 
2784.72  143296 143550 143748 143914 144100 144314 
2807.86  144534 144762 145018 145303 145596 145900 
2831.00  146225 146543 146795 146933 146964 146938 
2854.14  146870 146720 146497 146342 146441 146863 
2877.29  147527 148294 149028 149616 150007 150239 
2900.43  150379 150447 150414 150257 150004 149723 
2923.57  149490 149343 149261 149176 149059 148915 
2946.71  148677 148224 147670 147425 147719 148237 
2969.85  148511 148459 148267 148004 147673 147430 
2992.99  147401 147464 147416 147200 146832 146316 
3016.14  145780 145519 145717 146201 146581 146631 
3039.28  146509 146525 146753 146991 147105 147209 
3062.42  147454 147809 148136 148376 148561 148735 
3085.56  148919 149113 149310 149497 149683 149881 
3108.70  150093 150316 150564 150861 151199 151532 
3131.85  151822 152086 152355 152606 152802 152980 
3154.99  153215 153478 153670 153783 153918 154102 
3178.13  154245 154304 154370 154506 154620 154608 
3201.27  154522 154488 154482 154382 154196 154058 
3224.41  153996 153896 153710 153503 153300 153040 
3247.55  152704 152359 152063 151808 151553 151278 
3270.70  151014 150807 150640 150425 150107 149713 
3293.84  149272 148724 147966 146954 145734 144362 
3316.98  142880 141423 140270 139678 139712 140277 
3340.12  141209 142298 143370 144344 145158 145764 
3363.26  146247 146784 147419 148051 148664 149348 
3386.40  150092 150802 151525 152427 153528 154640 
3409.55  155616 156507 157404 158265 159010 159714 
3432.69  160522 161391 162125 162677 163230 163872 
3455.83  164445 164835 165191 165685 166206 166544 
3478.97  166758 167086 167565 167988 168230 168385 
3502.11  168593 168910 169334 169801 170177 170402 
3525.25  170607 170948 171376 171707 171858 171927 
3548.40  172132 172574 173029 173157 172983 173045 
3571.54  173674 174448 174842 174797 174678 174852 
3594.68  175325 175846 176173 176227 176145 176206 
3617.82  176517 176825 176918 177102 177808 178668 
3640.96  178957 178458 177822 177980 178839 179707 
3664.11  179997 179316 178109 177825 178597 179108 
3687.25  178802 178490 178920 179476 179402 178837 
3710.39  178488 178607 178858 178941 178707 178150 
3733.53  177653 177649 177836 177639 177324 177718 
3756.67  178645 179292 179396 179357 179546 179825 
3779.81  179958 180033 180223 180341 180019 179336 
3802.96  179048 179497 179958 179705 178949 178765 
3826.10  179350 179649 179019 178308 178632 179261 
3849.24  179076 178364 178354 178840 178848 178455 
3872.38  178485 178912 179086 178984 179124 179468 
3895.52  179427 178891 178623 179071 179579 179552 
3918.66  179194 179024 179073 179112 179163 179256 
3941.81  179258 179205 179318 179586 179774 179815 
3964.95  179840 179931 180055 180158 180217 180248 
3988.09  180295 180349 180361 180335 
##END= 
