##TITLE= Mattson Instruments
##JCAMP_DX= 4.24
##OWNER= 
##ORIGIN= 
##DATA TYPE= INFRARED SPECTRUM
##YUNITS= % Transmittance
##XUNITS= 1/CM
##FIRSTX= 401.12781972
##FIRSTY= 39.72343826
##LASTX= 3999.70720246
##XFACTOR= 1.00000000
##YFACTOR= 0.00104831
##MINY= 0.00000102
##MAXY= 68.70046234
##DELTAX= 3.85699826
##NPOINTS= 934
##XYDATA= (X++(Y..Y))
401.12  37892 38213 38520 38659 38410 37814 
424.26  37107 36392 35834 35707 35864 35669 
447.41  35001 34673 35423 36899 38110 38665 
470.55  38787 38642 38259 37814 37516 37370 
493.69  37240 36943 36132 34595 32976 32415 
516.83  33084 33776 33500 32661 32008 31567 
539.97  31193 31123 31431 31794 32108 32499 
563.12  32705 32367 31875 31976 32650 33219 
586.26  33418 33630 34174 34932 35597 35936 
609.40  35867 35526 35132 34714 34158 33608 
632.54  33557 34308 35464 36241 36261 35865 
655.68  35727 36184 36963 37416 37155 36539 
678.83  36037 35637 35117 34611 34751 36084 
701.97  38252 40094 40728 40196 39103 38293 
725.11  38733 40629 42710 43561 43440 43548 
748.25  44125 44675 45253 46095 46791 46835 
771.39  46214 45138 44031 43446 43208 42682 
794.54  42480 44132 47433 50222 51288 51445 
817.68  51537 51361 50639 49532 48157 46426 
840.82  44156 41183 37892 35180 33600 32225 
863.96  29977 27267 25721 26386 28528 30436 
887.10  31241 31455 31724 31982 32191 32837 
910.25  34094 35304 35598 34336 31206 26884 
933.39  23256 21919 22609 23687 23764 22525 
956.53  20633 19217 18916 19132 18638 16987 
979.67  14973 13679 13345 13321 12911 12006 
1002.81  10884 9802 9065 9091 9909 10802 
1025.96  10868 9895 8493 7507 7446 8312 
1049.10  9628 10554 10313 8922 7483 7309 
1072.24  8609 10416 11955 13608 16094 19127 
1095.38  21644 23297 24854 26911 29105 30871 
1118.52  32043 32401 31667 30343 29601 29973 
1141.67  30905 31781 32639 33744 35098 36531 
1164.81  37892 38857 39068 37892 35180 31409 
1187.95  27876 25740 25520 27143 29940 32698 
1211.09  34211 33848 31467 27257 22183 18274 
1234.23  17657 20880 26240 31009 33568 34309 
1257.38  34410 34257 33550 32397 31380 30788 
1280.52  30652 31303 33056 35526 37892 39221 
1303.66  39577 38973 37892 37117 35922 33704 
1326.80  31142 29805 30156 30929 30847 30156 
1349.94  29744 29802 30081 30613 31529 32609 
1373.09  33577 34508 35612 36844 37892 38279 
1396.23  37892 36902 35097 32907 31174 30586 
1419.37  30784 30433 29121 27767 27055 26598 
1442.51  25924 25452 25862 27548 30501 34108 
1465.65  37892 41881 46359 50328 53034 54855 
1488.80  56272 57381 58176 58709 59016 59200 
1511.94  59368 59439 59337 59162 59004 58775 
1535.08  58399 57907 57441 57064 56626 55887 
1558.22  54821 53859 53120 52252 51079 49725 
1581.36  48260 46537 44373 41560 37892 33467 
1604.51  28740 24641 22118 21464 21600 20863 
1627.65  18778 15587 11495 7433 4484 2561 
1650.79  1058 91 0 543 1719 4010 
1673.93  7583 12439 18811 25537 30335 32841 
1697.07  33890 33985 33694 33562 33956 35487 
1720.22  37892 39287 38940 37892 39168 43312 
1743.36  47799 50746 52531 54490 56811 58717 
1766.50  59878 60655 61387 62038 62535 62914 
1789.64  63206 63440 63680 63948 64201 64407 
1812.78  64577 64719 64830 64920 65026 65160 
1835.93  65280 65349 65385 65437 65503 65534 
1859.07  65503 65431 65351 65286 65250 65230 
1882.21  65202 65163 65133 65127 65137 65148 
1905.35  65151 65148 65147 65142 65126 65105 
1928.49  65088 65066 65026 64962 64883 64798 
1951.64  64712 64624 64534 64444 64361 64279 
1974.78  64199 64123 64049 63971 63895 63833 
1997.92  63786 63741 63688 63625 63555 63482 
2021.06  63405 63322 63237 63151 63061 62968 
2044.20  62873 62788 62721 62671 62624 62573 
2067.35  62508 62425 62329 62240 62167 62107 
2090.49  62056 62008 61955 61890 61824 61762 
2113.63  61696 61616 61534 61473 61438 61408 
2136.77  61372 61344 61336 61339 61344 61351 
2159.91  61354 61338 61299 61249 61196 61140 
2183.06  61080 61018 60961 60919 60902 60915 
2206.20  60950 60979 60972 60929 60877 60841 
2229.34  60819 60800 60773 60742 60712 60683 
2252.48  60649 60608 60567 60526 60477 60414 
2275.62  60343 60275 60217 60160 60095 60023 
2298.77  59954 59889 59826 59756 59678 59598 
2321.91  59513 59421 59336 59266 59198 59151 
2345.05  59155 59176 59133 58981 58786 58650 
2368.19  58592 58580 58600 58629 58636 58611 
2391.33  58563 58511 58456 58390 58306 58207 
2414.48  58103 57994 57884 57775 57676 57583 
2437.62  57487 57390 57296 57201 57099 56992 
2460.76  56886 56785 56694 56612 56543 56486 
2483.90  56436 56385 56324 56248 56158 56059 
2507.04  55953 55852 55765 55684 55597 55496 
2530.19  55379 55235 55064 54880 54698 54521 
2553.33  54340 54159 53992 53848 53718 53593 
2576.47  53467 53341 53216 53091 52966 52842 
2599.61  52713 52570 52407 52233 52062 51911 
2622.75  51771 51619 51436 51231 51024 50828 
2645.90  50650 50495 50347 50190 50031 49902 
2669.04  49818 49757 49680 49562 49408 49241 
2692.18  49074 48905 48724 48520 48287 48031 
2715.32  47765 47496 47227 46963 46716 46489 
2738.46  46280 46096 45942 45810 45681 45525 
2761.61  45322 45057 44735 44380 44023 43676 
2784.75  43322 42934 42484 41955 41343 40643 
2807.89  39833 38914 37892 36719 35314 33622 
2831.03  31562 29005 25982 22838 19981 17610 
2854.17  15867 15005 15095 15789 16574 17092 
2877.32  17167 16800 16208 15639 15049 14178 
2900.46  12944 11593 10450 9640 9039 8452 
2923.60  7815 7213 6779 6679 7071 7903 
2946.74  8901 9862 10788 11718 12693 13901 
2969.88  15471 17207 18928 20985 23956 27843 
2993.03  31933 35413 37892 39397 40178 40464 
3016.17  40377 40021 39592 39317 39276 39374 
3039.31  39480 39512 39441 39265 39005 38682 
3062.45  38308 37892 37465 37017 36555 36092 
3085.59  35653 35251 34881 34530 34186 33839 
3108.74  33472 33070 32633 32172 31695 31192 
3131.88  30659 30116 29589 29075 28552 28008 
3155.02  27448 26883 26313 25746 25201 24689 
3178.16  24205 23751 23341 22976 22628 22276 
3201.30  21926 21591 21263 20927 20586 20258 
3224.45  19951 19659 19371 19080 18788 18498 
3247.59  18211 17931 17668 17424 17201 16995 
3270.73  16796 16582 16357 16143 15961 15798 
3293.87  15624 15430 15227 15016 14778 14517 
3317.01  14269 14051 13848 13651 13472 13306 
3340.16  13129 12926 12714 12507 12299 12084 
3363.30  11875 11679 11480 11275 11093 10949 
3386.44  10819 10685 10568 10488 10439 10404 
3409.58  10382 10382 10403 10437 10475 10521 
3432.72  10578 10647 10726 10821 10955 11153 
3455.87  11428 11781 12229 12788 13455 14201 
3479.01  14996 15827 16681 17559 18478 19453 
3502.15  20484 21555 22641 23702 24707 25657 
3525.29  26567 27442 28282 29113 30006 31071 
3548.43  32362 33794 35215 36564 37892 39076 
3571.58  40253 41417 42594 43773 44891 45912 
3594.72  46829 47627 48299 48833 49193 49414 
3617.86  49699 50195 50834 51457 51966 52361 
3641.00  52641 52794 52863 52949 53087 53234 
3664.14  53322 53271 53092 52982 53039 53097 
3687.29  53023 52884 52819 52789 52680 52487 
3710.43  52300 52162 52028 51871 51691 51472 
3733.57  51223 51012 50862 50691 50450 50230 
3756.71  50093 49983 49839 49667 49491 49298 
3779.85  49084 48884 48730 48588 48378 48075 
3803.00  47773 47581 47457 47284 47013 46749 
3826.14  46584 46441 46197 45898 45719 45628 
3849.28  45441 45120 44861 44722 44542 44261 
3872.42  44018 43869 43697 43445 43219 43078 
3895.56  42921 42674 42417 42256 42144 41991 
3918.71  41792 41598 41402 41188 40989 40819 
3941.85  40636 40424 40226 40060 39901 39737 
3964.99  39574 39405 39220 39030 38850 38673 
3988.13  38483 38280 38079 37892 
##END= 
