##TITLE= Mattson Instruments
##JCAMP_DX= 4.24
##OWNER= 
##ORIGIN= 
##DATA TYPE= INFRARED SPECTRUM
##YUNITS= % Transmittance
##XUNITS= 1/CM
##FIRSTX= 401.12781972
##FIRSTY= 28.49510192
##LASTX= 3999.70720246
##XFACTOR= 1.00000000
##YFACTOR= 0.00077530
##MINY= 0.00000102
##MAXY= 50.80916595
##DELTAX= 3.85699826
##NPOINTS= 934
##XYDATA= (X++(Y..Y))
401.12  36753 35334 34856 35319 37164 40106 
424.26  42772 44310 44791 44555 44006 43351 
447.41  42466 41048 38757 35562 32263 30392 
470.55  31350 35047 39457 42712 44569 45558 
493.69  45979 45869 45374 44721 43900 42712 
516.83  41114 39238 37107 34508 30845 25217 
539.97  17800 11465 10329 15470 23398 29565 
563.12  31719 29911 25625 21523 20294 22756 
586.26  27564 32694 36753 39576 41311 42445 
609.40  43203 43698 44084 44456 44814 45113 
632.54  45286 45323 45277 45106 44810 44618 
655.68  44562 44052 42543 40511 39212 39194 
678.83  40077 41504 43185 44671 45685 46334 
701.97  46822 47159 47310 47363 47382 47328 
725.11  47261 47226 46994 46461 45789 44417 
748.25  41155 36753 34394 36753 42148 46097 
771.39  47504 47933 48441 48848 49066 49319 
794.54  49569 49705 49828 49980 50072 50128 
817.68  50212 50250 50231 50277 50358 50333 
840.82  50219 49986 49460 48739 47776 45400 
863.96  40878 36753 34885 36753 39497 38336 
887.10  36753 36753 40976 44730 46787 47601 
910.25  47329 46146 45228 45820 47755 49747 
933.39  50828 50970 50618 50151 49588 48622 
956.53  47335 46756 47885 50216 52191 53004 
979.67  53083 53019 52867 52505 52027 51384 
1002.81  49968 47476 45267 45421 47968 50620 
1025.96  51662 51376 50611 49610 48019 44985 
1049.10  40408 36753 36753 41524 46798 49251 
1072.24  48970 47536 45291 41539 36753 34806 
1095.38  36753 40745 45360 48462 49933 50423 
1118.52  50346 49960 49382 48606 47807 47234 
1141.67  46776 45948 44084 40718 36753 36753 
1164.81  39188 44318 48539 50045 49721 48467 
1187.95  46066 42992 41118 41633 43704 45934 
1211.09  47908 49683 50920 51377 51430 51488 
1234.23  51496 51305 50964 50504 49901 49176 
1257.38  48275 47093 45552 43304 40035 36753 
1280.52  35167 36753 40308 42816 43446 42888 
1303.66  41880 40591 38892 36753 34390 31115 
1326.80  26336 20849 17441 18901 24774 31457 
1349.94  36071 38267 38495 36500 32423 27937 
1373.09  24405 21205 17432 13802 11231 9649 
1396.23  10162 15706 26239 36753 41733 42858 
1419.37  42102 40187 36753 33393 30729 30800 
1442.51  32996 34515 33636 31317 30325 30842 
1465.65  30208 28019 27144 29272 31586 31533 
1488.80  29161 25998 23065 19804 15475 10716 
1511.94  7034 4376 1867 0 159 2042 
1535.08  4407 6320 7313 7601 7429 6991 
1558.22  7028 7973 9007 9569 9480 8615 
1581.36  7056 4959 2732 1378 1793 3676 
1604.51  5547 6000 5084 4257 4821 6348 
1627.65  7760 9235 11765 15346 18941 22339 
1650.79  26244 30588 34198 36753 38611 40396 
1673.93  42215 43660 44788 46235 47876 48850 
1697.07  49102 49868 51601 52993 53486 53862 
1720.22  55012 56233 56621 56352 56378 56942 
1743.36  57437 57815 58486 59423 60217 60639 
1766.50  60685 60624 60949 61719 62407 62628 
1789.64  62495 62410 62642 63097 63520 63831 
1812.78  64171 64515 64561 64249 64067 64361 
1835.93  64719 64709 64546 64715 65186 65534 
1859.07  65504 65169 64851 64886 65234 65507 
1882.21  65460 65231 65119 65225 65400 65469 
1905.35  65384 65194 64944 64661 64462 64476 
1928.49  64609 64592 64306 63907 63615 63463 
1951.64  63319 63070 62752 62484 62319 62211 
1974.78  62109 61984 61782 61491 61198 60999 
1997.92  60872 60709 60443 60086 59700 59348 
2021.06  59083 58934 58902 58975 59138 59359 
2044.20  59609 59884 60191 60507 60809 61101 
2067.35  61387 61650 61870 62059 62230 62390 
2090.49  62548 62701 62838 62963 63105 63279 
2113.63  63474 63659 63808 63911 63964 63962 
2136.77  63915 63851 63783 63694 63577 63456 
2159.91  63352 63249 63111 62922 62691 62449 
2183.06  62224 62047 61937 61885 61862 61839 
2206.20  61807 61765 61707 61622 61508 61374 
2229.34  61209 60989 60707 60379 60018 59651 
2252.48  59329 59095 58956 58885 58840 58804 
2275.62  58776 58731 58582 58262 57797 57254 
2298.77  56630 56385 56139 55893 55648 55402 
2321.91  55157 54911 54665 54420 54174 53929 
2345.05  53683 53437 53192 52946 52701 52455 
2368.19  52209 51964 51718 51473 51227 50982 
2391.33  50736 50490 50302 50093 49845 49533 
2414.48  49139 48642 48054 47430 46836 46337 
2437.62  45978 45764 45638 45525 45356 45097 
2460.76  44746 44325 43869 43426 43014 42563 
2483.90  41940 41042 39842 38384 36753 35057 
2507.04  33699 33049 33284 34235 35513 36753 
2530.19  37789 38495 38837 38844 38613 38253 
2553.33  37815 37306 36753 36248 35779 35313 
2576.47  34794 34186 33491 32757 32050 31428 
2599.61  30936 30626 30553 30763 31301 32212 
2622.75  33510 35098 36753 38096 39053 39574 
2645.90  39685 39447 38947 38276 37516 36753 
2669.04  36109 35622 35296 35092 34959 34861 
2692.18  34777 34705 34641 34556 34404 34168 
2715.32  33873 33564 33276 33024 32791 32535 
2738.46  32221 31881 31609 31472 31433 31374 
2761.61  31186 30840 30368 29838 29344 28960 
2784.75  28688 28464 28216 27908 27524 27069 
2807.89  26585 26132 25742 25396 25049 24677 
2831.03  24280 23869 23441 22992 22538 22115 
2854.17  21743 21410 21134 20994 21060 21276 
2877.32  21477 21537 21452 21261 20929 20422 
2900.46  19834 19341 19019 18751 18312 17533 
2923.60  16532 15834 15958 16717 17287 17157 
2946.74  16587 15915 14982 13696 12628 12374 
2969.88  12720 13022 13122 13375 13998 14839 
2993.03  15677 16448 17184 17885 18502 19022 
3016.17  19516 20044 20557 20970 21298 21620 
3039.31  21987 22430 22989 23678 24456 25284 
3062.45  26147 27012 27809 28484 29029 29459 
3085.59  29787 30044 30288 30578 30929 31316 
3108.74  31686 31978 32142 32169 32100 31987 
3131.88  31848 31661 31405 31093 30757 30407 
3155.02  30020 29592 29165 28815 28608 28589 
3178.16  28780 29171 29735 30431 31211 32040 
3201.30  32911 33806 34680 35470 36150 36753 
3224.45  37279 37785 38255 38709 39212 39790 
3247.59  40389 40958 41496 42037 42586 43119 
3270.73  43601 43998 44320 44614 44909 45187 
3293.87  45429 45628 45786 45883 45907 45888 
3317.01  45870 45864 45836 45757 45636 45495 
3340.16  45346 45180 44981 44746 44492 44237 
3363.30  44003 43796 43597 43374 43137 42916 
3386.44  42709 42480 42237 42039 41903 41777 
3409.58  41604 41393 41192 41029 40889 40764 
3432.72  40676 40601 40493 40397 40424 40547 
3455.87  40605 40543 40479 40512 40560 40512 
3479.01  40410 40403 40532 40668 40693 40624 
3502.15  40576 40637 40803 40963 40962 40784 
3525.29  40652 40779 41047 41151 40984 40758 
3548.43  40777 41057 41238 40994 40504 40402 
3571.58  40894 41403 41413 40967 40535 40494 
3594.72  40779 41107 41268 41170 40900 40782 
3617.86  41017 41292 41245 41211 41783 42527 
3641.00  42501 41484 40509 40803 41896 42695 
3664.14  42648 41644 40393 40294 41142 41538 
3687.29  41098 40754 41181 41631 41381 40694 
3710.43  40312 40372 40443 40297 39884 39198 
3733.57  38563 38424 38535 38297 37943 38302 
3756.71  39175 39759 39875 39940 40142 40214 
3779.85  40075 40035 40176 40049 39276 38214 
3803.00  37852 38325 38621 38058 37096 36903 
3826.14  37426 37508 36753 36238 36753 37178 
3849.28  36753 36134 36208 36571 36422 36038 
3872.42  36123 36457 36444 36246 36386 36660 
3895.56  36479 35964 35999 36763 37382 37383 
3918.71  37097 36976 36970 36945 36995 37074 
3941.85  37002 36869 36936 37178 37372 37450 
3964.99  37464 37416 37319 37233 37175 37092 
3988.13  36962 36832 36765 36753 
##END= 
