##TITLE= Mattson Instruments
##JCAMP_DX= 4.24
##OWNER= 
##ORIGIN= 
##DATA TYPE= INFRARED SPECTRUM
##YUNITS= % Transmittance
##XUNITS= 1/CM
##FIRSTX= 401.12781972
##FIRSTY= 19.43296623
##LASTX= 3999.70720246
##XFACTOR= 1.00000000
##YFACTOR= 0.00049749
##MINY= 0.00000102
##MAXY= 32.60302352
##DELTAX= 3.85699826
##NPOINTS= 934
##XYDATA= (X++(Y..Y))
401.12  39061 40146 39545 37271 33814 29614 
424.26  25970 24914 27575 33088 39061 43004 
447.41  44580 44169 42128 39061 36703 36101 
470.55  37369 39032 39464 38462 36845 35064 
493.69  32900 30069 26862 24427 24092 26249 
516.83  29941 33579 36144 37626 38374 38275 
539.97  36950 34719 32954 32909 34401 36264 
563.12  37700 38649 39242 39546 39616 39437 
586.26  38978 38128 36416 33504 30448 29410 
609.40  31193 34054 35937 37068 39061 42240 
632.54  45288 47344 48739 49873 50591 50889 
655.68  51100 50959 49785 47921 46331 43903 
678.83  39061 32931 32546 39061 48461 54310 
701.97  56513 57365 57928 58066 57837 57532 
725.11  57217 56734 56000 55100 53814 51735 
748.25  49660 49496 51345 52546 51411 49682 
771.39  49568 50597 50820 49042 44944 39061 
794.54  33238 30877 33475 39061 43871 45828 
817.68  46595 48028 48733 45837 39061 31419 
840.82  27512 30389 39061 48377 53776 54962 
863.96  54414 53577 52403 50911 49376 47792 
887.10  46016 43947 41562 39061 37240 35320 
910.25  32922 30061 27285 25381 24630 24375 
933.39  24265 25849 31115 39061 45252 47642 
956.53  47385 47082 47864 49310 50741 51743 
979.67  52133 51971 51496 50926 50342 49676 
1002.81  48798 47697 46490 45279 44177 43335 
1025.96  42667 41766 40487 39353 39061 40285 
1049.10  42397 44800 46623 47324 47233 47059 
1072.24  47001 46762 46101 44759 42303 39061 
1095.38  35963 36128 39061 42820 44649 44864 
1118.52  44173 42831 41869 42697 44921 46506 
1141.67  46322 44969 43274 41366 39061 36183 
1164.81  32709 28615 23868 18887 15258 15165 
1187.95  19219 24906 27894 25667 20147 16159 
1211.09  17027 22233 28982 34583 37184 35970 
1234.23  31790 27161 24992 26615 30650 34367 
1257.38  36670 39061 43158 48715 54048 57930 
1280.52  59981 60235 59135 57352 55069 52048 
1303.66  48863 47193 47856 49051 47874 43699 
1326.80  39061 36825 39061 45485 52019 55554 
1349.94  55926 55036 54130 53086 51841 50916 
1373.09  50460 50073 49316 47456 43689 39061 
1396.23  36732 39061 42681 44093 42164 39061 
1419.37  37929 37865 37553 36884 37087 39061 
1442.51  41895 43539 43232 41474 39061 36246 
1465.65  34241 34913 39061 44668 46723 44542 
1488.80  39061 32552 29081 30969 39061 49775 
1511.94  58044 61778 63030 64091 65337 65534 
1535.08  63879 61405 60680 61400 60911 58284 
1558.22  55472 55076 55766 55379 53788 52012 
1581.36  50150 47451 44533 43741 46271 50060 
1604.51  52002 51334 49436 47142 44512 42585 
1627.65  42659 44498 46394 46712 45233 42391 
1650.79  39061 37093 35651 32556 26918 20887 
1673.93  18007 19307 24047 30186 34463 35591 
1697.07  34365 32523 31265 29460 25799 21819 
1720.22  21534 25471 31578 39061 46705 52825 
1743.36  56892 59611 61653 63303 64425 64712 
1766.50  64183 63482 63453 64105 64619 64393 
1789.64  63602 62932 62815 63100 63418 63609 
1812.78  63777 63933 63804 63372 63253 63703 
1835.93  63796 62752 61377 61277 62560 63857 
1859.07  64212 63789 63354 63466 63998 64386 
1882.21  64305 63949 63742 63833 64013 64056 
1905.35  63929 63716 63455 63173 63010 63097 
1928.49  63299 63305 62987 62543 62271 62248 
1951.64  62307 62259 62071 61827 61610 61458 
1974.78  61377 61322 61212 61045 60940 60980 
1997.92  61089 61118 61008 60793 60539 60304 
2021.06  60128 60000 59851 59652 59443 59278 
2044.20  59164 59064 58931 58747 58547 58382 
2067.35  58266 58180 58110 58052 57998 57955 
2090.49  57943 57951 57941 57881 57770 57624 
2113.63  57466 57319 57186 57052 56900 56725 
2136.77  56530 56339 56178 56065 55997 55958 
2159.91  55918 55852 55754 55642 55527 55405 
2183.06  55262 55095 54917 54739 54569 54410 
2206.20  54260 54114 53958 53779 53580 53382 
2229.34  53201 53015 52800 52570 52356 52167 
2252.48  51968 51734 51475 51221 50979 50789 
2275.62  50598 50408 50218 50028 49838 49648 
2298.77  49458 49268 49078 48887 48697 48507 
2321.91  48317 48127 47937 47747 47557 47367 
2345.05  47176 46986 46796 46606 46416 46226 
2368.19  46036 45846 45656 45466 45275 45085 
2391.33  44895 44797 44584 44335 44077 43838 
2414.48  43634 43445 43246 43027 42781 42531 
2437.62  42320 42165 42027 41869 41684 41471 
2460.76  41238 40994 40752 40515 40270 40005 
2483.90  39707 39387 39061 38749 38453 38171 
2507.04  37904 37641 37355 37021 36647 36281 
2530.19  35983 35806 35754 35775 35766 35645 
2553.33  35406 35109 34836 34656 34584 34555 
2576.47  34483 34341 34167 34026 33985 34083 
2599.61  34296 34538 34711 34779 34768 34735 
2622.75  34707 34677 34622 34528 34399 34249 
2645.90  34089 33927 33780 33667 33574 33477 
2669.04  33379 33314 33305 33344 33435 33611 
2692.18  33884 34185 34393 34447 34377 34270 
2715.32  34191 34169 34214 34318 34437 34499 
2738.46  34457 34315 34124 33950 33852 33875 
2761.61  34048 34370 34769 35127 35360 35479 
2784.75  35557 35634 35686 35677 35613 35537 
2807.89  35485 35461 35433 35359 35199 34926 
2831.03  34556 34134 33697 33253 32801 32365 
2854.17  31970 31599 31201 30722 30157 29609 
2877.32  29307 29474 30076 30723 30960 30734 
2900.46  30474 30613 31115 31595 31799 31787 
2923.60  31697 31568 31415 31305 31283 31322 
2946.74  31367 31372 31321 31240 31176 31145 
2969.88  31136 31139 31150 31175 31232 31346 
2993.03  31517 31720 31934 32145 32315 32414 
3016.17  32457 32456 32374 32256 32305 32641 
3039.31  33024 33095 32911 32900 33244 33677 
3062.45  33982 34284 34715 35141 35397 35522 
3085.59  35644 35797 35991 36263 36608 36945 
3108.74  37187 37313 37391 37519 37730 37928 
3131.88  37994 37935 37896 37982 38143 38260 
3155.02  38288 38253 38175 38055 37890 37681 
3178.16  37439 37197 36982 36773 36540 36296 
3201.30  36065 35814 35498 35113 34711 34333 
3224.45  33964 33559 33108 32629 32140 31643 
3247.59  31144 30664 30228 29828 29409 28909 
3270.73  28345 27792 27277 26750 26177 25583 
3293.87  24994 24403 23791 23150 22502 21878 
3317.01  21279 20658 19993 19304 18614 17915 
3340.16  17166 16292 15181 13732 11966 10210 
3363.30  9134 9383 10957 13081 14861 15937 
3386.44  16447 16576 16291 15326 13135 9283 
3409.58  4380 513 0 3453 9377 15685 
3432.72  21093 25250 28314 30664 32643 34386 
3455.87  35953 37470 39061 40598 41986 43123 
3479.01  44060 44931 45817 46650 47292 47704 
3502.15  48022 48446 49029 49579 49857 49891 
3525.29  49968 50314 50783 51048 50957 50714 
3548.43  50734 51128 51410 51026 50204 49944 
3571.58  50631 51399 51384 50652 49950 49797 
3594.72  50052 50319 50326 49917 49232 48814 
3617.86  48976 49187 48883 48650 49436 50533 
3641.00  50428 48818 47343 47715 49248 50333 
3664.14  50100 48450 46562 46367 47525 48089 
3687.29  47504 47059 47642 48250 47892 46917 
3710.43  46327 46348 46465 46288 45637 44517 
3733.57  43489 43149 43079 42580 42176 42923 
3756.71  44318 45173 45304 45353 45594 45660 
3779.85  45497 45533 45799 45634 44563 43130 
3803.00  42611 43198 43590 42822 41529 41287 
3826.14  42042 42171 41068 40219 40854 41640 
3849.28  41151 40073 40036 40574 40450 39917 
3872.42  40008 40483 40498 40195 40316 40647 
3895.56  40338 39487 39332 40238 41033 40906 
3918.71  40299 39978 39968 40023 40176 40337 
3941.85  40240 39968 39877 39968 39984 39881 
3964.99  39776 39677 39574 39505 39452 39359 
3988.13  39248 39168 39117 39061 
##END= 
