##TITLE= Mattson Instruments
##JCAMP_DX= 4.24
##OWNER= 
##ORIGIN= 
##DATA TYPE= INFRARED SPECTRUM
##YUNITS= % Transmittance
##XUNITS= 1/CM
##FIRSTX= 401.12781972
##FIRSTY= 8.79952716
##LASTX= 3999.70720246
##XFACTOR= 1.00000000
##YFACTOR= 0.00032129
##MINY= 0.00000102
##MAXY= 21.05572891
##DELTAX= 3.85699826
##NPOINTS= 934
##XYDATA= (X++(Y..Y))
401.12  27387 27243 27213 27286 27143 26702 
424.26  26134 25529 24749 23882 23342 23083 
447.41  22410 20841 18840 17486 17417 18365 
470.55  19604 20695 21524 22053 22336 22445 
493.69  22413 22278 22115 21932 21653 21289 
516.83  20883 20422 19939 19613 19531 19497 
539.97  19533 20131 21487 22837 23277 22870 
563.12  22280 21843 21495 21172 20695 19586 
586.26  17595 15283 13674 13266 13689 14280 
609.40  14575 14332 13648 13172 13576 14766 
632.54  16028 16928 17592 18147 18567 18901 
655.68  19223 19486 19690 19991 20491 21114 
678.83  21713 22214 22693 23226 23708 23996 
701.97  24247 24766 25547 26297 26874 27387 
725.11  27947 28514 29100 29650 29992 30174 
748.25  30650 31716 32948 33737 34112 34438 
771.39  34618 34270 33448 32658 32316 32406 
794.54  32453 31961 31002 29719 27387 23365 
817.68  19001 16244 15186 14971 16215 19808 
840.82  24342 27387 28295 28153 27387 26018 
863.96  23755 21070 18921 18544 20412 23748 
887.10  27387 30161 31373 31398 32291 35527 
910.25  39954 43410 45264 46160 46588 46744 
933.39  46584 45638 43931 42795 43373 44868 
956.53  45656 45424 44972 44724 44509 44264 
979.67  44091 43972 43846 43735 43618 43413 
1002.81  43131 42836 42504 42102 41697 41297 
1025.96  40788 40182 39467 38208 36182 34553 
1049.10  35123 37878 40625 41633 41245 40547 
1072.24  39885 39260 39002 39347 39975 40395 
1095.38  40435 40209 39842 39378 38827 38240 
1118.52  37706 37271 36892 36533 36204 35869 
1141.67  35448 34939 34401 33843 33257 32608 
1164.81  31722 30454 28937 27387 26297 25147 
1187.95  23673 21556 19768 21132 27387 35167 
1211.09  40226 40644 38598 36493 34635 32504 
1234.23  30035 27387 24909 22326 19375 15806 
1257.38  12299 10863 13515 20012 27387 32696 
1280.52  34194 31967 27387 24671 27387 34228 
1303.66  40831 42892 41079 38100 34995 31495 
1326.80  27387 23322 19567 18272 21076 27387 
1349.94  34651 42046 48310 52196 53352 52682 
1373.09  51330 49790 48090 46299 44562 42934 
1396.23  41369 39838 38251 36425 34296 32029 
1419.37  29733 27387 25001 22063 17906 13382 
1442.51  11612 14943 21621 27387 29803 29842 
1465.65  28897 27387 26211 24818 23313 21716 
1488.80  20207 18884 17470 15539 12936 9993 
1511.94  7871 8898 15501 27387 38870 45902 
1535.08  46725 43650 39542 35461 31394 27387 
1558.22  24350 20964 17025 12806 8916 5961 
1581.36  4175 3347 3321 4507 7576 12355 
1604.51  17204 19867 19246 16313 13388 12719 
1627.65  15423 20977 27387 31542 32747 31049 
1650.79  27387 23148 18451 13842 10463 9850 
1673.93  12873 19121 27387 36482 45128 52450 
1697.07  58042 61905 64184 65055 64887 64310 
1720.22  63944 64039 64423 64830 65147 65387 
1743.36  65531 65534 65364 64984 64325 63393 
1766.50  62372 61519 60779 59662 57886 56118 
1789.64  55514 56390 57835 58815 59133 59146 
1812.78  59021 58642 57957 57109 56218 55242 
1835.93  54177 53341 53209 53809 54568 54934 
1859.07  54856 54470 53791 52946 52079 50813 
1882.21  48723 46661 46394 48326 50756 51992 
1905.35  52049 51786 51532 51215 50893 50653 
1928.49  50433 50190 49924 49577 49094 48518 
1951.64  47906 47288 46717 46249 45887 45601 
1974.78  45366 45162 44951 44675 44292 43839 
1997.92  43415 43078 42820 42631 42529 42541 
2021.06  42671 42878 43072 43183 43226 43300 
2044.20  43474 43709 43919 44034 43962 43617 
2067.35  43116 42800 42867 43120 43228 43080 
2090.49  42767 42405 42090 41871 41690 41442 
2113.63  41132 40889 40824 40940 41147 41330 
2136.77  41414 41391 41294 41149 40959 40731 
2159.91  40490 40268 40078 39925 39799 39672 
2183.06  39519 39362 39257 39208 39148 38998 
2206.20  38745 38454 38218 38114 38155 38266 
2229.34  38322 38262 38164 38156 38268 38421 
2252.48  38524 38545 38489 38377 38233 38090 
2275.62  37963 37830 37654 37448 37305 37311 
2298.77  37424 37480 37348 37037 36921 36806 
2321.91  36690 36575 36460 36344 36229 36113 
2345.05  35998 35882 35767 35652 35536 35421 
2368.19  35305 35190 35075 34959 34844 34639 
2391.33  34360 34140 34052 34093 34204 34317 
2414.48  34388 34410 34404 34403 34414 34425 
2437.62  34424 34408 34376 34336 34296 34246 
2460.76  34165 34049 33912 33763 33594 33409 
2483.90  33227 33094 33045 33063 33079 33042 
2507.04  32951 32823 32661 32474 32287 32116 
2530.19  31952 31777 31581 31358 31097 30784 
2553.33  30432 30100 29850 29678 29496 29200 
2576.47  28759 28302 28088 28301 28825 29323 
2599.61  29547 29507 29333 29115 28874 28596 
2622.75  28242 27807 27387 27132 27149 27387 
2645.90  27703 27915 27958 27857 27655 27387 
2669.04  27103 26816 26537 26260 25973 25668 
2692.18  25332 24945 24510 24073 23713 23499 
2715.32  23469 23594 23748 23785 23671 23493 
2738.46  23331 23191 23084 23080 23225 23469 
2761.61  23720 23918 24035 24058 24003 23911 
2784.75  23810 23705 23597 23491 23396 23359 
2807.89  23454 23704 24024 24300 24480 24571 
2831.03  24589 24550 24475 24370 24228 24056 
2854.17  23882 23719 23550 23377 23238 23154 
2877.32  23104 23063 23015 22931 22769 22515 
2900.46  22186 21791 21336 20853 20403 20029 
2923.60  19738 19514 19352 19258 19223 19198 
2946.74  19118 18936 18660 18365 18159 18096 
2969.88  18138 18184 18146 17979 17688 17305 
2993.03  16831 16247 15595 15015 14657 14570 
3016.17  14675 14815 14798 14490 13959 13531 
3039.31  13528 13921 14315 14346 13982 13438 
3062.45  12929 12588 12461 12465 12432 12262 
3085.59  11995 11716 11468 11243 11023 10799 
3108.74  10579 10358 10102 9787 9426 9038 
3131.88  8615 8141 7628 7094 6541 5959 
3155.02  5352 4722 4064 3382 2685 1987 
3178.16  1307 697 238 0 15 313 
3201.30  947 1928 3171 4488 5650 6465 
3224.45  6882 7040 7163 7377 7645 7876 
3247.59  8013 8022 7877 7598 7254 6907 
3270.73  6579 6289 6101 6125 6453 7078 
3293.87  7894 8747 9491 10024 10303 10338 
3317.01  10172 9874 9501 9049 8472 7756 
3340.16  6947 6137 5441 4970 4751 4670 
3363.30  4538 4223 3711 3089 2458 1886 
3386.44  1438 1275 1696 3059 5626 9375 
3409.58  13957 18808 23401 27387 30598 33148 
3432.72  35163 36759 38021 39006 39748 40291 
3455.87  40711 41080 41407 41662 41840 41986 
3479.01  42141 42320 42513 42702 42857 42958 
3502.15  43000 42999 42975 42945 42909 42873 
3525.29  42851 42849 42834 42772 42668 42554 
3548.43  42436 42293 42119 41930 41735 41541 
3571.58  41364 41203 41018 40776 40505 40269 
3594.72  40090 39930 39752 39557 39369 39205 
3617.86  39065 38929 38784 38645 38532 38414 
3641.00  38239 38005 37778 37616 37509 37390 
3664.14  37194 36925 36679 36527 36404 36214 
3687.29  35986 35832 35770 35693 35529 35321 
3710.43  35156 35058 34974 34841 34637 34398 
3733.57  34185 34016 33856 33697 33602 33605 
3756.71  33635 33594 33486 33377 33270 33129 
3779.85  32971 32860 32806 32744 32616 32436 
3803.00  32262 32121 31994 31871 31792 31783 
3826.14  31777 31662 31446 31261 31155 31029 
3849.28  30839 30703 30690 30681 30562 30392 
3872.42  30258 30119 29914 29710 29596 29544 
3895.56  29470 29368 29289 29235 29161 29067 
3918.71  28997 28958 28896 28775 28616 28468 
3941.85  28371 28319 28263 28162 28055 27993 
3964.99  27955 27878 27751 27626 27550 27532 
3988.13  27537 27527 27479 27387 
##END= 
