##TITLE= Mattson Instruments
##JCAMP_DX= 4.24
##OWNER= 
##ORIGIN= 
##DATA TYPE= INFRARED SPECTRUM
##YUNITS= % Transmittance
##XUNITS= 1/CM
##FIRSTX= 401.12365566
##FIRSTY= 72.75518035
##LASTX= 3999.66568195
##XFACTOR= 1.00000000
##YFACTOR= 0.00016301
##MINY= 72.75518035
##MAXY= 83.43799591
##DELTAX= 3.85695822
##NPOINTS= 934
##XYDATA= (X++(Y..Y))
401.12  446318 449563 452874 456232 459378 462822 
424.26  467063 471433 475466 479844 484644 488431 
447.40  490201 490275 489666 489589 489933 488632 
470.54  485113 481824 479727 476495 471476 467746 
493.69  467780 471056 476407 483386 490914 497406 
516.83  502257 505673 507829 509053 509877 510502 
539.97  510874 511074 511245 511489 511787 511811 
563.11  511235 510210 509045 507747 506353 505158 
586.25  504222 503250 502056 500713 499380 498234 
609.39  497392 496771 496165 495443 494592 493667 
632.54  492705 491706 490799 490074 489145 487560 
655.68  485468 482918 479160 474192 469985 468372 
678.82  468892 469569 468383 464532 460358 460646 
701.96  467198 475753 480956 482148 481904 481512 
725.10  480598 479193 477818 476516 475023 473260 
748.24  470837 466713 460796 455923 456196 462341 
771.39  470445 476277 479162 480822 482283 483338 
794.53  483849 484220 484872 486125 488653 493023 
817.67  498032 500704 499229 494851 490050 486245 
840.81  483518 480814 476630 471516 468893 471119 
863.95  476044 479645 480570 480186 479862 480014 
887.10  480581 481193 481475 481504 481553 481646 
910.24  481720 481841 482050 482294 482530 482713 
933.38  482782 482758 482748 482831 483011 483224 
956.52  483380 483417 483306 483097 482969 483033 
979.66  483153 483181 483179 483218 483207 483043 
1002.80  482618 481673 479811 476623 472118 467486 
1025.95  464736 464846 466943 469592 471873 473517 
1049.09  475614 480327 487604 493414 493831 489701 
1072.23  485056 482352 481339 481102 481054 480784 
1095.37  480324 480141 480312 480508 480714 481054 
1118.51  481395 481778 482632 483803 484046 482481 
1141.65  480052 478521 478393 478794 479005 479121 
1164.80  479356 479615 479771 479812 479741 479594 
1187.94  479423 479193 478895 478592 478064 476854 
1211.08  475183 474076 473771 472972 470916 469332 
1234.22  470666 474834 479285 481863 482416 481947 
1257.36  481253 480512 479634 478722 478204 478448 
1280.51  479251 479896 479838 479164 478208 477134 
1303.65  476453 477267 479765 481954 481473 478472 
1326.79  475217 473144 471967 471311 471494 472731 
1349.93  474864 477672 480680 483189 485153 487345 
1373.07  490098 492616 493964 494047 493219 491486 
1396.21  488343 483202 476400 470276 468413 472648 
1419.36  481037 489601 495764 499471 501746 503358 
1442.50  504535 505073 504742 503885 503298 503276 
1465.64  503322 503139 503185 503767 504347 504549 
1488.78  505038 506350 507494 507105 505495 504110 
1511.92  503301 502152 500336 498620 497388 496058 
1535.06  494378 493276 493634 494690 494707 493286 
1558.21  491983 492149 493224 494115 494961 496329 
1581.35  497792 498519 498357 497565 496356 494909 
1604.49  492915 489638 485710 483751 485387 488697 
1627.63  490522 490206 489298 488623 487507 485546 
1650.77  483631 482784 482667 482032 480420 478465 
1673.91  476546 474287 471643 469169 466932 464520 
1697.06  462367 461628 462426 463535 464196 464998 
1720.20  466530 468181 469054 469365 470046 471303 
1743.34  472512 473351 474187 475346 476678 477884 
1766.48  478905 479938 481206 482656 483948 484861 
1789.62  485553 486296 487133 487933 488611 489195 
1812.77  489738 490197 490467 490597 490811 491187 
1835.91  491517 491677 491841 492164 492516 492696 
1859.05  492674 492542 492429 492465 492677 492938 
1882.19  493134 493281 493424 493564 493704 493866 
1905.33  494033 494156 494219 494276 494409 494640 
1928.47  494886 495044 495093 495072 495023 494946 
1951.62  494728 494207 493498 493089 493368 494178 
1974.76  495059 495748 496266 496697 497095 497499 
1997.90  497898 498255 498583 498927 499280 499599 
2021.04  499887 500178 500485 500793 501095 501389 
2044.18  501684 501982 502275 502562 502874 503241 
2067.32  503658 504091 504511 504916 505314 505712 
2090.47  506104 506476 506825 507146 507434 507695 
2113.61  507940 508167 508392 508634 508878 509090 
2136.75  509281 509494 509722 509905 510018 510107 
2159.89  510225 510397 510594 510760 510838 510817 
2183.03  510753 510695 510629 510527 510414 510339 
2206.18  510280 510165 509978 509769 509572 509373 
2229.32  509155 508936 508730 508522 508298 508059 
2252.46  507796 507499 507189 506884 506560 506209 
2275.60  505863 505542 505219 504885 504573 504293 
2298.74  504008 503663 503219 502687 502098 501431 
2321.88  500646 499803 499025 498401 498074 498208 
2345.03  498588 498550 497688 496429 495596 495587 
2368.17  496234 497190 498147 498859 499242 499393 
2391.31  499448 499474 499493 499509 499511 499498 
2414.45  499494 499516 499567 499645 499735 499825 
2437.59  499921 500041 500193 500372 500574 500788 
2460.73  501006 501220 501419 501598 501777 501991 
2483.88  502246 502506 502740 502950 503172 503425 
2507.02  503684 503906 504079 504238 504418 504630 
2530.16  504864 505106 505339 505571 505822 506080 
2553.30  506306 506495 506691 506930 507185 507415 
2576.44  507617 507817 508030 508243 508437 508609 
2599.58  508764 508900 509014 509097 509139 509140 
2622.73  509133 509171 509266 509389 509515 509638 
2645.87  509756 509874 510012 510184 510376 510558 
2669.01  510706 510823 510931 511046 511157 511249 
2692.15  511305 511326 511359 511464 511632 511774 
2715.29  511828 511825 511826 511847 511852 511807 
2738.44  511709 511594 511505 511457 511429 511388 
2761.58  511315 511229 511159 511101 511031 510950 
2784.72  510858 510733 510554 510342 510133 509957 
2807.86  509852 509838 509875 509894 509873 509835 
2831.00  509768 509622 509402 509178 509007 508889 
2854.14  508814 508781 508774 508776 508792 508822 
2877.29  508834 508821 508808 508808 508804 508782 
2900.43  508738 508669 508573 508455 508326 508205 
2923.57  508135 508150 508235 508334 508406 508434 
2946.71  508411 508332 508217 508106 508024 507962 
2969.85  507891 507788 507649 507489 507339 507223 
2992.99  507119 506972 506762 506563 506502 506621 
3016.14  506802 506879 506798 506607 506328 505907 
3039.28  505241 504212 502939 502054 502312 503649 
3062.42  505044 505638 505552 505331 505138 504942 
3085.56  504904 505041 504947 504392 503870 504039 
3108.70  504827 505543 505762 505700 505758 506026 
3131.85  506337 506554 506661 506673 506600 506490 
3154.99  506431 506449 506465 506404 506310 506284 
3178.13  506351 506455 506539 506570 506534 506468 
3201.27  506449 506495 506538 506524 506483 506461 
3224.41  506456 506442 506388 506261 506081 505927 
3247.55  505835 505763 505678 505607 505551 505474 
3270.70  505384 505319 505270 505228 505207 505187 
3293.84  505115 504995 504866 504725 504559 504395 
3316.98  504251 504098 503917 503709 503454 503159 
3340.12  502897 502706 502523 502267 501950 501655 
3363.26  501426 501223 500962 500638 500349 500162 
3386.40  500014 499810 499556 499318 499104 498893 
3409.55  498704 498562 498445 498331 498233 498168 
3432.69  498120 498086 498080 498102 498128 498160 
3455.83  498224 498295 498321 498304 498311 498381 
3478.97  498483 498571 498638 498704 498777 498849 
3502.11  498919 499014 499128 499205 499216 499224 
3525.25  499297 499411 499516 499614 499711 499782 
3548.40  499831 499898 499964 499961 499932 500032 
3571.54  500312 500593 500657 500529 500454 500615 
3594.68  500944 501225 501313 501225 501123 501187 
3617.82  501382 501420 501191 501081 501451 501957 
3640.96  501937 501370 500896 500975 501452 501818 
3664.11  501599 500799 500101 500145 500626 500763 
3687.25  500503 500464 500825 501077 500857 500379 
3710.39  500042 500022 500197 500255 499988 499557 
3733.53  499248 498989 498496 497917 497819 498402 
3756.67  499177 499600 499650 499617 499655 499702 
3779.81  499714 499766 499860 499761 499274 498656 
3802.96  498416 498602 498689 498359 498013 498154 
3826.10  498497 498311 497635 497343 497668 497695 
3849.24  496960 496387 496772 497451 497533 497306 
3872.38  497445 497767 497731 497431 497304 497323 
3895.52  497164 496878 496859 497178 497451 497443 
3918.66  497367 497433 497529 497528 497512 497530 
3941.81  497473 497319 497202 497181 497159 497060 
3964.95  496932 496868 496895 496964 497010 497010 
3988.09  496950 496821 496657 496520 
##END= 
