##TITLE= Mattson Instruments
##JCAMP_DX= 4.24
##OWNER= 
##ORIGIN= 
##DATA TYPE= INFRARED SPECTRUM
##YUNITS= % Transmittance
##XUNITS= 1/CM
##FIRSTX= 401.12781972
##FIRSTY= 40.67198181
##LASTX= 3999.70720246
##XFACTOR= 1.00000000
##YFACTOR= 0.00104607
##MINY= 0.00000102
##MAXY= 68.55330657
##DELTAX= 3.85699826
##NPOINTS= 934
##XYDATA= (X++(Y..Y))
401.12  38880 38521 38150 37272 37057 38726 
424.26  41095 42233 41974 41271 40663 39901 
447.41  38632 36832 34834 33336 32910 33369 
470.55  33913 33615 32056 29975 29013 30182 
493.69  32535 34243 34577 34159 33725 33430 
516.83  33236 33195 33333 33659 34246 35056 
539.97  35834 36343 36611 36807 37006 37199 
563.12  37396 37627 37883 38141 38338 38373 
586.26  38257 38202 38406 38752 38880 38109 
609.40  37059 36068 35251 34483 33842 33845 
632.54  34955 36947 38880 39452 38880 38054 
655.68  37535 37765 38880 41204 44093 46750 
678.83  48866 50498 51601 52101 52060 51552 
701.97  50564 49073 47110 44666 41746 38880 
725.11  36553 36338 37622 38880 39751 39881 
748.25  39950 40399 41388 42932 44897 47051 
771.39  49191 51116 52570 53300 53134 51973 
794.54  49933 47617 46021 45984 47709 50713 
817.68  54117 57189 59734 61861 63526 64534 
840.82  64745 64103 62735 60806 57820 52873 
863.96  46711 42507 42752 45698 46698 43473 
887.10  38880 37438 39552 40610 37220 31791 
910.25  28686 28429 29003 30254 32948 35230 
933.39  33982 28991 23095 18658 15781 13888 
956.53  13850 17552 25106 33480 38880 40513 
979.67  38880 35162 31083 27147 23390 19806 
1002.81  16583 13847 11600 9945 8824 5174 
1025.96  2495 1011 0 937 2028 3814 
1049.10  6765 7943 9191 10532 11730 12357 
1072.24  12279 11780 11152 10597 10706 12274 
1095.38  15087 17484 17730 15504 11995 9143 
1118.52  8440 9579 10774 11065 11226 11845 
1141.67  12139 11424 10076 8562 7154 6649 
1164.81  7686 9657 11743 14322 18045 22423 
1187.95  26443 29701 32217 33916 34635 34150 
1211.09  32369 29975 28316 28024 28232 27588 
1234.23  25656 23122 21193 20896 22292 24106 
1257.38  24634 23251 20643 17595 14420 11714 
1280.52  10535 11313 13403 15961 18438 20126 
1303.66  20331 19301 18169 17817 18343 19434 
1326.80  20642 21434 21531 21156 20664 20018 
1349.94  18856 17004 14839 13233 12803 13076 
1373.09  12957 12281 12351 14284 17287 19274 
1396.23  19123 17591 15984 14920 14415 14232 
1419.37  13874 12913 11493 10147 9567 10203 
1442.51  11562 12703 13380 14214 15868 18112 
1465.65  20469 23030 25867 28501 30570 32237 
1488.80  33732 35112 36296 37227 38018 38880 
1511.94  39884 40716 41435 42263 43150 43837 
1535.08  44266 44677 45391 46210 46754 47013 
1558.22  47352 47990 48604 49016 49387 49878 
1581.36  50403 50820 51099 51274 51388 51452 
1604.51  51459 51398 51250 51035 50876 50851 
1627.65  50867 50847 50904 51138 51410 51619 
1650.79  51985 52752 53638 54314 54812 55322 
1673.93  55868 56301 56640 57086 57600 57921 
1697.07  58053 58378 59004 59519 59759 59983 
1720.22  60444 60904 61092 61097 61226 61532 
1743.36  61795 61954 62115 62310 62465 62532 
1766.50  62526 62532 62671 62925 63127 63175 
1789.64  63136 63155 63300 63523 63736 63922 
1812.78  64121 64321 64433 64462 64552 64757 
1835.93  64937 64997 65032 65163 65349 65463 
1859.07  65437 65270 65037 64863 64815 64839 
1882.21  64866 64906 65008 65154 65275 65317 
1905.35  65287 65214 65119 65019 64967 65022 
1928.49  65165 65296 65344 65329 65324 65366 
1951.64  65430 65456 65405 65284 65138 65023 
1974.78  64974 64973 64943 64838 64705 64642 
1997.92  64688 64812 64965 65106 65210 65271 
2021.06  65298 65290 65246 65160 65021 64838 
2044.20  64674 64597 64603 64608 64541 64410 
2067.35  64274 64164 64073 63984 63899 63846 
2090.49  63858 63941 64065 64202 64342 64478 
2113.63  64592 64650 64611 64451 64194 63909 
2136.77  63686 63576 63561 63590 63632 63698 
2159.91  63812 63995 64250 64550 64839 65072 
2183.06  65248 65387 65491 65534 65504 65440 
2206.20  65407 65431 65476 65486 65451 65413 
2229.34  65416 65462 65511 65509 65434 65311 
2252.48  65194 65102 65002 64842 64624 64419 
2275.62  64289 64208 64068 63803 63447 63089 
2298.77  63024 62959 62893 62828 62762 62697 
2321.91  62632 62566 62501 62436 62370 62305 
2345.05  62239 62174 62109 62043 61978 61913 
2368.19  61847 61782 61716 61651 61586 61520 
2391.33  61462 61326 61198 61100 61008 60909 
2414.48  60795 60659 60486 60258 59979 59681 
2437.62  59413 59189 58990 58783 58547 58278 
2460.76  57989 57707 57448 57217 57014 56832 
2483.90  56650 56437 56190 55907 55575 55175 
2507.04  54705 54189 53655 53129 52643 52237 
2530.19  51935 51708 51489 51214 50872 50496 
2553.33  50126 49775 49445 49157 48946 48845 
2576.47  48858 48961 49110 49254 49336 49296 
2599.61  49095 48752 48329 47874 47379 46805 
2622.75  46138 45409 44655 43879 43060 42192 
2645.90  41298 40419 39598 38880 38427 38108 
2669.04  37872 37652 37417 37164 36907 36652 
2692.18  36398 36152 35954 35848 35849 35944 
2715.32  36116 36375 36740 37201 37701 38173 
2738.46  38584 38930 39210 39410 39516 39514 
2761.61  39396 39173 38873 38524 38147 37754 
2784.75  37346 36914 36479 36104 35860 35756 
2807.89  35728 35707 35652 35539 35338 35031 
2831.03  34630 34152 33577 32852 31945 30859 
2854.17  29587 28132 26594 25167 24067 23503 
2877.32  23634 24438 25631 26793 27597 27863 
2900.46  27359 25730 22917 19649 17221 16571 
2923.60  17662 19675 21568 22669 23122 23618 
2946.74  24486 25394 26205 27547 29990 32995 
2969.88  35242 35942 35589 35347 35780 36391 
2993.03  36484 36123 35924 36178 36615 36855 
3016.17  36749 36336 35711 34958 34137 33276 
3039.31  32400 31521 30640 29767 28905 28044 
3062.45  27176 26307 25441 24575 23710 22861 
3085.59  22043 21248 20464 19687 18925 18178 
3108.74  17438 16705 16001 15349 14750 14182 
3131.88  13626 13098 12623 12190 11779 11401 
3155.02  11072 10770 10470 10178 9911 9676 
3178.16  9468 9291 9151 9059 9011 8993 
3201.30  9002 9049 9142 9270 9419 9587 
3224.45  9770 9973 10203 10452 10697 10917 
3247.59  11118 11311 11493 11639 11729 11768 
3270.73  11792 11834 11889 11909 11868 11793 
3293.87  11717 11631 11505 11355 11238 11146 
3317.01  11022 10853 10716 10634 10565 10494 
3340.16  10463 10478 10523 10603 10714 10815 
3363.30  10900 11018 11212 11443 11667 11877 
3386.44  12063 12195 12281 12368 12481 12604 
3409.58  12717 12837 12979 13129 13253 13353 
3432.72  13472 13655 13892 14115 14309 14513 
3455.87  14757 15039 15356 15763 16275 16828 
3479.01  17369 17906 18451 18988 19512 20058 
3502.15  20661 21321 22021 22745 23500 24311 
3525.29  25181 26093 27014 27934 28872 29876 
3548.43  30964 32093 33195 34261 35360 36546 
3571.58  37752 38880 39498 40103 40729 41370 
3594.72  42008 42631 43230 43801 44360 44935 
3617.86  45521 46054 46519 46997 47521 47964 
3641.00  48238 48414 48644 49004 49418 49771 
3664.14  49967 50000 50037 50251 50532 50693 
3687.29  50743 50840 51043 51227 51288 51261 
3710.43  51248 51288 51339 51351 51273 51103 
3733.57  50947 50911 50930 50894 50846 50909 
3756.71  51046 51137 51143 51101 51047 50963 
3779.85  50833 50695 50563 50378 50097 49807 
3803.00  49669 49681 49658 49496 49286 49199 
3826.14  49192 49069 48793 48563 48505 48441 
3849.28  48228 47965 47811 47702 47506 47253 
3872.42  47060 46928 46762 46543 46356 46212 
3895.56  46004 45716 45488 45367 45207 44915 
3918.71  44559 44231 43933 43666 43451 43251 
3941.85  43002 42740 42544 42402 42222 41975 
3964.99  41698 41426 41144 40834 40508 40184 
3988.13  39872 39557 39226 38880 
##END= 
