##TITLE= Mattson Instruments
##JCAMP_DX= 4.24
##OWNER= 
##ORIGIN= 
##DATA TYPE= INFRARED SPECTRUM
##YUNITS= % Transmittance
##XUNITS= 1/CM
##FIRSTX= 401.12781972
##FIRSTY= 16.49558067
##LASTX= 3999.70720246
##XFACTOR= 1.00000000
##YFACTOR= 0.00036883
##MINY= 0.00000102
##MAXY= 24.17145538
##DELTAX= 3.85699826
##NPOINTS= 934
##XYDATA= (X++(Y..Y))
401.12  44723 47098 48062 47295 46033 46039 
424.26  47393 48706 49148 48835 48324 47962 
447.41  47515 46697 45938 46073 47020 47862 
470.55  48228 48508 48873 49046 48994 48917 
493.69  48740 48276 47724 47394 47037 46123 
516.83  44723 43692 43740 44723 45843 46451 
539.97  46304 45593 44723 44129 43910 44148 
563.12  44723 45146 45106 44723 44395 44330 
586.26  44429 44588 44705 44670 44580 44723 
609.40  45222 45796 46158 46258 46179 45880 
632.54  45328 44857 44998 45813 46891 47948 
655.68  48801 49089 48774 48659 49497 50658 
678.83  51134 50901 50636 50761 51270 52117 
701.97  53195 54193 54807 55031 55163 55481 
725.11  55885 56004 55719 55290 54945 54646 
748.25  54430 54593 55247 55935 56055 55548 
771.39  54865 54389 54218 54347 54786 55502 
794.54  56377 57076 57108 56338 55262 54470 
817.68  54108 54157 54737 55746 56724 57404 
840.82  57983 58616 59102 59203 58922 58371 
863.96  57611 56818 56451 56942 58052 58919 
887.10  59029 58776 58769 58980 58985 58650 
910.25  58253 58082 58127 58118 57879 57522 
933.39  57044 56023 54357 52976 52967 54116 
956.53  55163 55298 54667 53675 52580 51631 
979.67  51042 50884 51154 51674 51944 51558 
1002.81  50804 50428 50799 51595 52268 52551 
1025.96  52444 51946 51076 50119 49421 48779 
1049.10  47598 45939 44723 44394 44212 43379 
1072.24  42219 41451 40897 39753 37891 36232 
1095.38  35785 36630 37949 38930 39425 39734 
1118.52  40082 40542 41226 42237 43481 44723 
1141.67  45998 46825 46966 46249 44723 42533 
1164.81  40625 39332 38203 36515 34186 31865 
1187.95  30273 29811 30574 32324 34553 36798 
1211.09  38704 39835 39932 39491 39598 40875 
1234.23  42830 44444 45174 45167 44691 43709 
1257.38  42135 40262 38742 38087 38196 38455 
1280.52  38434 38223 37888 37180 36263 36009 
1303.66  36788 37643 37569 37064 37482 39128 
1326.80  40868 41511 40867 39618 38575 37906 
1349.94  37161 36055 34991 34672 35197 36016 
1373.09  36798 37690 38646 39162 38853 37867 
1396.23  36740 36216 36842 38251 39348 39416 
1419.37  38650 37481 35691 33035 30235 28514 
1442.51  27952 27486 26362 24798 23714 23171 
1465.65  21987 19773 17903 17610 17714 17052 
1488.80  16581 17669 19190 19126 17444 16140 
1511.94  16449 17540 19185 22280 26172 28749 
1535.08  29094 28305 28732 29991 29729 27015 
1558.22  23144 20541 18786 16576 14377 13298 
1581.36  13314 14287 16738 20283 23142 23968 
1604.51  22779 20137 16382 11964 8051 5646 
1627.65  4467 3888 3702 3528 2705 1185 
1650.79  0 175 794 776 434 830 
1673.93  2096 3253 4347 6884 11143 15766 
1697.07  20532 26338 32165 36091 38154 39939 
1720.22  42429 44003 42933 39254 34922 31534 
1743.36  28762 26843 27123 29946 34153 38454 
1766.50  42000 44723 47210 49614 51395 52346 
1789.64  52876 53554 54627 55879 56895 57596 
1812.78  58285 58935 59050 58650 58637 59427 
1835.93  60172 60227 60113 60622 61574 62238 
1859.07  62268 61850 61523 61803 62565 63144 
1882.21  63167 62909 62851 63101 63423 63617 
1905.35  63670 63655 63592 63497 63535 63866 
1928.49  64322 64527 64368 64128 64124 64372 
1951.64  64647 64760 64708 64620 64621 64737 
1974.78  64908 65016 64955 64773 64662 64739 
1997.92  64919 65058 65098 65052 64980 64963 
2021.06  65041 65157 65224 65221 65195 65193 
2044.20  65232 65297 65350 65348 65307 65296 
2067.35  65349 65420 65460 65466 65458 65457 
2090.49  65474 65506 65531 65534 65518 65502 
2113.63  65503 65521 65532 65516 65480 65445 
2136.77  65420 65407 65407 65422 65436 65433 
2159.91  65414 65387 65363 65338 65311 65284 
2183.06  65261 65247 65252 65269 65268 65244 
2206.20  65225 65224 65224 65215 65219 65246 
2229.34  65274 65291 65302 65308 65298 65267 
2252.48  65221 65160 65092 65040 65014 65006 
2275.62  65008 64998 64922 64743 64724 64705 
2298.77  64685 64666 64646 64627 64608 64588 
2321.91  64569 64549 64530 64510 64491 64472 
2345.05  64452 64433 64413 64394 64374 64355 
2368.19  64336 64316 64297 64277 64258 64238 
2391.33  64219 64200 64180 64161 64232 64277 
2414.48  64304 64330 64355 64366 64359 64342 
2437.62  64316 64281 64232 64176 64103 64019 
2460.76  63953 63926 63924 63920 63901 63861 
2483.90  63823 63819 63826 63806 63752 63694 
2507.04  63640 63594 63565 63546 63514 63461 
2530.19  63404 63359 63322 63292 63266 63257 
2553.33  63259 63257 63229 63172 63116 63070 
2576.47  63023 62968 62912 62868 62840 62824 
2599.61  62788 62712 62611 62526 62474 62435 
2622.75  62389 62330 62263 62190 62130 62096 
2645.90  62066 62019 61970 61958 61967 61952 
2669.04  61889 61806 61743 61705 61664 61609 
2692.18  61546 61466 61353 61215 61084 60979 
2715.32  60882 60782 60676 60567 60467 60387 
2738.46  60325 60278 60257 60249 60194 60083 
2761.61  59965 59863 59736 59571 59422 59321 
2784.75  59221 59060 58843 58613 58396 58193 
2807.89  57987 57768 57548 57353 57154 56875 
2831.03  56487 56025 55512 54901 54160 53302 
2854.17  52325 51153 49692 47990 46353 45233 
2877.32  44893 45172 45612 45829 45727 45432 
2900.46  45086 44723 44270 43644 42835 41896 
2923.60  40911 39984 39229 38713 38400 38143 
2946.74  37729 36958 35766 34389 33331 33075 
2969.88  33754 35118 36737 38316 39826 41397 
2993.03  43070 44723 46182 47385 48311 48948 
3016.17  49300 49411 49333 49167 49045 49037 
3039.31  49072 49040 48934 48851 48840 48884 
3062.45  48987 49190 49476 49764 50025 50300 
3085.59  50606 50866 51027 51115 51200 51295 
3108.74  51337 51279 51138 50979 50832 50686 
3131.88  50528 50359 50163 49909 49596 49258 
3155.02  48922 48567 48155 47680 47169 46623 
3178.16  46031 45386 44723 44036 43303 42534 
3201.30  41779 41050 40335 39676 39144 38739 
3224.45  38368 37926 37372 36729 36062 35442 
3247.59  34891 34426 34058 33770 33521 33312 
3270.73  33207 33242 33354 33472 33609 33795 
3293.87  34000 34162 34263 34287 34215 34086 
3317.01  33973 33874 33700 33408 33054 32732 
3340.16  32502 32313 32074 31727 31324 30956 
3363.30  30671 30460 30297 30178 30112 30094 
3386.44  30119 30196 30305 30433 30581 30706 
3409.58  30706 30550 30366 30272 30215 30140 
3432.72  30111 30172 30242 30314 30518 30847 
3455.87  31094 31189 31349 31728 32167 32446 
3479.01  32565 32731 33030 33340 33504 33546 
3502.15  33661 34012 34551 35038 35244 35218 
3525.29  35299 35767 36430 36810 36701 36476 
3548.43  36717 37464 37994 37695 37011 37159 
3571.58  38379 39504 39670 39201 38965 39411 
3594.72  40236 41001 41417 41330 40966 41043 
3617.86  41878 42684 42832 43184 44723 46380 
3641.00  46341 44723 43544 44723 46994 48431 
3664.14  48184 46377 44723 44723 46699 47543 
3687.29  47156 47344 48694 49631 49204 48152 
3710.43  47738 48097 48483 48373 47586 46252 
3733.57  45138 44889 44889 44397 44186 45378 
3756.71  47093 47990 48093 48239 48621 48769 
3779.85  48679 48871 49264 48996 47627 46070 
3803.00  45947 47077 47545 46448 45066 45307 
3826.14  46458 46375 44862 44063 45011 45706 
3849.28  44930 44037 44541 45191 44799 44238 
3872.42  44631 45208 45016 44629 44981 45468 
3895.56  44973 43902 43928 45235 46141 45878 
3918.71  45254 45115 45231 45291 45469 45666 
3941.85  45501 45149 45084 45275 45388 45406 
3964.99  45438 45404 45249 45076 44935 44792 
3988.13  44674 44635 44673 44723 
##END= 
