##TITLE= Mattson Instruments
##JCAMP_DX= 4.24
##OWNER= 
##ORIGIN= 
##DATA TYPE= INFRARED SPECTRUM
##YUNITS= % Transmittance
##XUNITS= 1/CM
##FIRSTX= 401.12365566
##FIRSTY= 58.94757461
##LASTX= 3999.66568195
##XFACTOR= 1.00000000
##YFACTOR= 0.00094814
##MINY= 6.98444366
##MAXY= 69.12018585
##DELTAX= 3.85695822
##NPOINTS= 934
##XYDATA= (X++(Y..Y))
401.12  62171 61155 60260 59352 58227 56945 
424.26  55611 54123 52461 50359 47195 43554 
447.40  41770 43329 46863 49224 48902 47229 
470.54  46205 46958 48913 50395 50343 49247 
493.69  48476 48693 49506 50234 50572 50570 
516.83  50298 49807 49177 48460 47650 46754 
539.97  45728 44484 42991 41160 38753 35913 
563.11  33604 32848 33597 35090 36929 38963 
586.25  40640 41468 41783 42280 42951 43238 
609.39  43015 42550 41538 39308 36448 34962 
632.54  35928 38003 39119 38864 38076 37127 
655.68  35932 34638 33367 31949 30415 29112 
678.82  28190 27692 27790 28497 29637 31017 
701.96  32325 33021 32671 31461 30300 30084 
725.10  30898 32007 32759 33147 33089 31696 
748.24  28334 24211 21858 22703 25879 29444 
771.39  32157 33944 35210 36186 37083 38277 
794.53  39802 41231 42483 43566 43116 39426 
817.67  33959 31159 33229 37498 40366 41364 
840.81  41886 42361 42412 42179 41706 40082 
863.95  37017 34737 36197 41222 46321 48835 
887.10  49267 49199 49098 48809 48440 48120 
910.24  47757 47339 46942 46545 46095 45614 
933.38  45104 44557 43961 43310 42601 41792 
956.52  40845 39785 38524 36893 34917 32486 
979.66  28911 24371 21621 23642 29163 33250 
1002.80  32912 29535 25513 21223 16132 11147 
1025.95  8773 10720 15405 19143 20459 21380 
1049.09  23699 26114 26456 24807 22856 21550 
1072.23  20866 20943 22081 23824 25017 24850 
1095.37  23347 20771 17297 13510 10454 8768 
1118.51  8314 8712 9553 10148 9950 9368 
1141.65  9543 11289 14552 18657 22701 25949 
1164.80  28176 29603 30452 30727 30375 29355 
1187.94  27615 25377 23567 23455 25384 27954 
1211.08  29006 27705 25582 25246 27833 31678 
1234.22  33679 32121 28147 24491 22834 22579 
1257.36  22142 20780 18823 16856 15603 16062 
1280.51  18434 21048 21643 19898 17545 15910 
1303.65  14656 13048 11213 9781 9099 9204 
1326.79  10092 11732 13969 16492 19002 21402 
1349.93  23512 24766 24776 24271 24687 26468 
1373.07  28639 29874 29684 28763 28361 29396 
1396.21  31658 34071 35879 37076 37844 38053 
1419.36  37406 36110 34723 33483 32500 31936 
1442.50  31744 31683 31590 31475 31491 31666 
1465.64  31940 32504 33615 35060 36537 37917 
1488.78  38303 36796 34936 34827 36891 39520 
1511.92  40806 41154 41403 41573 41577 41575 
1535.06  41589 41495 41271 41066 40871 40528 
1558.21  39930 39332 38877 38358 37627 36763 
1581.35  35900 35028 34114 33152 32140 31064 
1604.49  29880 28568 27191 25758 24178 22534 
1627.63  20981 19335 17338 15319 13718 12288 
1650.77  10568 8930 8005 7608 7444 7366 
1673.91  7418 7873 9082 11020 13110 15264 
1697.06  18071 21554 24426 26537 28691 31123 
1720.20  33152 34474 35364 35765 35458 34380 
1743.34  32020 27973 23961 22994 25667 30261 
1766.48  34978 39101 42621 45453 47681 49677 
1789.62  51594 53281 54703 55958 57034 57938 
1812.77  58751 59475 60118 60789 61527 62220 
1835.91  62853 63523 64213 64829 65394 65989 
1859.05  66632 67311 67971 68513 68924 69296 
1882.19  69680 70062 70410 70718 71005 71297 
1905.33  71585 71848 72087 72304 72463 72542 
1928.47  72578 72629 72708 72777 72782 72736 
1951.62  72709 72750 72833 72900 72898 72812 
1974.76  72674 72529 72396 72262 72087 71837 
1997.90  71532 71228 70941 70656 70394 70197 
2021.04  70080 70045 70059 70019 69829 69561 
2044.18  69404 69422 69479 69429 69254 69014 
2067.32  68752 68502 68284 68040 67697 67302 
2090.47  67000 66836 66708 66525 66309 66121 
2113.61  65976 65834 65659 65454 65237 64999 
2136.75  64727 64447 64195 63990 63846 63763 
2159.89  63717 63664 63572 63439 63282 63115 
2183.03  62930 62719 62500 62308 62145 61985 
2206.18  61801 61573 61284 60940 60575 60221 
2229.32  59882 59535 59173 58822 58494 58166 
2252.46  57820 57477 57172 56920 56719 56544 
2275.60  56358 56147 55918 55678 55423 55150 
2298.74  54861 54562 54265 53974 53693 53418 
2321.88  53134 52823 52501 52198 51902 51603 
2345.03  51343 51138 50929 50638 50242 49799 
2368.17  49341 48856 48349 47838 47356 46940 
2391.31  46590 46264 45919 45542 45136 44696 
2414.45  44231 43767 43319 42882 42435 41969 
2437.59  41490 40999 40484 39948 39432 38981 
2460.73  38610 38299 38028 37785 37553 37315 
2483.88  37066 36804 36526 36228 35916 35597 
2507.02  35275 34953 34637 34310 33943 33527 
2530.16  33084 32658 32278 31943 31635 31346 
2553.30  31077 30815 30531 30216 29884 29550 
2576.44  29217 28898 28610 28352 28104 27847 
2599.58  27572 27273 26953 26622 26295 25988 
2622.73  25715 25485 25297 25145 25024 24930 
2645.87  24864 24835 24839 24852 24834 24749 
2669.01  24583 24341 24040 23715 23410 23150 
2692.15  22928 22727 22540 22377 22248 22151 
2715.29  22078 22027 21997 21978 21957 21933 
2738.44  21917 21920 21949 22008 22090 22182 
2761.58  22277 22382 22504 22637 22770 22905 
2784.72  23047 23182 23280 23325 23318 23266 
2807.86  23189 23123 23100 23133 23215 23313 
2831.00  23386 23407 23362 23250 23101 22969 
2854.14  22884 22840 22821 22806 22782 22752 
2877.29  22697 22574 22397 22178 21811 21217 
2900.43  20533 19846 18956 17883 17293 17776 
2923.57  18939 19860 20177 20160 20032 19784 
2946.71  19426 19029 18620 18204 17790 17382 
2969.85  17002 16690 16428 16153 15842 15517 
2992.99  15194 14884 14627 14452 14343 14250 
3016.14  14136 14015 13924 13891 13924 14022 
3039.28  14184 14399 14657 14947 15261 15598 
3062.42  15960 16329 16692 17060 17447 17837 
3085.56  18213 18587 18979 19377 19760 20129 
3108.70  20503 20876 21214 21498 21747 21978 
3131.85  22191 22381 22551 22703 22830 22931 
3154.99  23011 23069 23093 23077 23016 22894 
3178.13  22683 22362 21950 21471 20924 20303 
3201.27  19665 19107 18704 18469 18401 18519 
3224.41  18840 19331 19913 20535 21189 21849 
3247.55  22458 22992 23471 23906 24275 24566 
3270.70  24771 24842 24723 24409 23911 23179 
3293.84  22131 20786 19292 17842 16643 15906 
3316.98  15782 16267 17215 18436 19768 21083 
3340.12  22277 23303 24175 24900 25466 25884 
3363.26  26180 26351 26367 26203 25841 25244 
3386.40  24330 22967 21071 18755 16407 14583 
3409.55  13770 14163 15605 17675 19910 22008 
3432.69  23842 25381 26678 27818 28840 29772 
3455.83  30681 31609 32516 33347 34126 34896 
3478.97  35649 36339 36942 37429 37687 37537 
3502.11  36775 35138 32366 28515 24192 20528 
3525.25  18836 19715 22502 26087 29715 33024 
3548.40  35906 38397 40556 42436 44089 45525 
3571.54  46750 47849 48913 49964 50955 51836 
3594.68  52608 53319 54022 54740 55460 56173 
3617.82  56880 57541 58098 58535 58931 59378 
3640.96  59870 60330 60643 60831 61061 61374 
3664.11  61719 62050 62324 62531 62735 62958 
3687.25  63141 63235 63303 63412 63542 63665 
3710.39  63797 63939 64054 64138 64240 64379 
3733.53  64501 64565 64629 64722 64744 64654 
3756.67  64577 64556 64514 64425 64387 64443 
3779.81  64502 64503 64545 64720 64969 65132 
3802.96  65132 65105 65174 65316 65432 65426 
3826.10  65367 65362 65419 65457 65415 65338 
3849.24  65261 65222 65259 65303 65268 65160 
3872.38  65082 65054 64977 64811 64662 64618 
3895.52  64613 64514 64313 64159 64119 64140 
3918.66  64173 64178 64119 63999 63875 63778 
3941.81  63663 63527 63459 63477 63485 63421 
3964.95  63324 63237 63153 63065 63001 62959 
3988.09  62907 62829 62745 62665 
##END= 
