##TITLE= Mattson Instruments
##JCAMP_DX= 4.24
##OWNER= 
##ORIGIN= 
##DATA TYPE= INFRARED SPECTRUM
##YUNITS= % Transmittance
##XUNITS= 1/CM
##FIRSTX= 401.12365566
##FIRSTY= 77.36651611
##LASTX= 3999.66568195
##XFACTOR= 1.00000000
##YFACTOR= 0.00047625
##MINY= 48.42631530
##MAXY= 79.63747406
##DELTAX= 3.85695822
##NPOINTS= 934
##XYDATA= (X++(Y..Y))
401.12  162446 161806 159928 157113 154674 154828 
424.26  157937 161893 164980 166542 166347 164480 
447.40  161900 160352 161276 164244 166838 167214 
470.54  165584 163867 163881 165418 166907 167040 
493.69  165830 164363 163602 163263 162274 160793 
516.83  160412 161774 163369 163745 163171 162402 
539.97  161492 160269 158825 157114 154723 151530 
563.11  148604 147926 150434 154582 157815 159110 
586.25  159104 158530 157730 156841 155725 154283 
609.39  152581 150017 145793 141336 140102 143163 
632.54  147280 148836 147770 146403 146139 146934 
655.68  148460 150397 152330 153865 154972 155691 
678.82  155326 153269 150941 150813 152874 154770 
701.96  155213 155117 155500 156267 157042 157680 
725.10  158049 157927 156924 154812 152372 150896 
748.24  150440 150052 149854 151030 153735 156813 
771.39  159258 160425 159754 157840 156659 157412 
794.53  159066 159890 159482 158506 157336 155913 
817.67  154313 152634 150705 148388 145826 143455 
840.81  142294 143249 145227 145918 145731 147591 
863.95  151150 151915 148391 144739 144021 144676 
887.10  145519 148175 152872 156879 158337 158090 
910.24  157296 155450 151184 144743 139513 139486 
933.38  144636 150797 154568 156035 156621 156779 
956.52  156366 155598 154764 153352 150394 146339 
979.66  143638 143957 145539 144922 140835 135452 
1002.80  132509 134393 139976 145345 147493 146622 
1025.95  144372 141243 136640 130513 124444 121210 
1049.09  122666 127978 134774 141169 145581 146613 
1072.23  145144 144465 146205 148345 149165 150340 
1095.37  153775 158048 160633 161445 161904 162174 
1118.51  161421 159520 156423 150974 143165 136954 
1141.65  137445 144697 153346 158771 160810 161343 
1164.80  161250 160548 159394 157975 156238 153990 
1187.94  151081 147695 144408 141938 141109 142461 
1211.08  144968 146124 144637 141916 139768 138427 
1234.22  137943 139088 141316 142078 139842 135954 
1257.36  132262 128754 124926 122116 122703 127314 
1280.51  134174 141058 146661 150286 151679 151660 
1303.65  151765 152500 152852 152089 150825 149550 
1326.79  147741 145502 144385 145288 146340 145096 
1349.93  141829 138747 137679 138959 141775 145328 
1373.07  149217 152846 155464 156897 157412 157178 
1396.21  156121 153863 150370 146839 144841 145009 
1419.36  146540 147859 148197 147069 144256 141863 
1442.50  142527 145536 148422 149772 150214 151025 
1465.64  151841 151113 147327 142063 138852 139077 
1488.78  142990 148446 151788 152829 153309 154303 
1511.92  155395 156010 156424 157242 158316 158921 
1535.06  158746 158084 158002 158483 158561 157954 
1558.21  157301 157424 157648 157363 156772 156350 
1581.35  156067 155597 154849 153907 152843 151691 
1604.49  150524 149398 148234 146854 145289 143836 
1627.63  142461 140681 138284 135866 133782 131362 
1650.77  127759 123555 119752 116013 112539 110790 
1673.91  111005 111329 110562 109183 108416 108339 
1697.06  108132 106965 105336 103922 102582 101680 
1720.20  101926 102891 104437 107386 111618 115433 
1743.34  118613 121955 125404 128437 130969 132973 
1766.48  134432 135763 137449 139318 140989 142355 
1789.62  143396 144219 145142 146284 147453 148557 
1812.77  149667 150681 151379 151802 152313 153075 
1835.91  153778 154152 154278 154432 154705 154999 
1859.05  155263 155525 155871 156406 157057 157587 
1882.19  157860 157955 158058 158269 158519 158699 
1905.33  158804 158917 159062 159177 159280 159499 
1928.47  159844 160165 160351 160456 160616 160872 
1951.62  161113 161219 161209 161216 161309 161436 
1974.76  161530 161575 161572 161530 161503 161540 
1997.90  161606 161614 161529 161417 161374 161446 
2021.04  161625 161859 162073 162209 162272 162311 
2044.18  162358 162393 162368 162250 162065 161897 
2067.32  161835 161907 162064 162202 162250 162244 
2090.47  162283 162393 162511 162580 162614 162628 
2113.61  162597 162511 162430 162413 162450 162487 
2136.75  162505 162515 162521 162512 162487 162473 
2159.89  162492 162529 162535 162495 162463 162479 
2183.03  162518 162544 162563 162577 162560 162504 
2206.18  162442 162401 162364 162292 162183 162084 
2229.32  162036 162027 162025 162032 162063 162107 
2252.46  162145 162170 162164 162094 161955 161780 
2275.60  161612 161493 161453 161488 161553 161607 
2298.74  161648 161684 161705 161716 161748 161665 
2321.88  161582 161499 161416 161334 161251 161168 
2345.03  161085 161002 160919 160836 160753 160670 
2368.17  160587 160504 160314 160203 160116 159998 
2391.31  159817 159593 159394 159262 159173 159084 
2414.45  159005 158984 159034 159116 159180 159202 
2437.59  159182 159131 159060 158983 158905 158826 
2460.73  158749 158712 158745 158821 158868 158850 
2483.88  158804 158784 158793 158801 158798 158783 
2507.02  158741 158652 158526 158407 158318 158242 
2530.16  158157 158063 157969 157850 157690 157532 
2553.30  157439 157398 157343 157261 157210 157225 
2576.44  157278 157315 157309 157251 157146 157001 
2599.58  156828 156663 156557 156542 156596 156663 
2622.73  156702 156712 156721 156724 156672 156544 
2645.87  156389 156252 156101 155894 155675 155519 
2669.01  155400 155228 154985 154730 154486 154211 
2692.15  153867 153479 153118 152859 152750 152788 
2715.29  152926 153096 153232 153306 153338 153347 
2738.44  153311 153205 153048 152865 152630 152305 
2761.58  151916 151534 151207 150922 150650 150368 
2784.72  150052 149679 149262 148853 148475 148083 
2807.86  147611 147032 146334 145467 144371 143035 
2831.00  141505 139852 138177 136627 135459 135132 
2854.14  136144 138500 141454 144012 145636 146373 
2877.29  146469 146101 145395 144537 143791 143350 
2900.43  143160 143008 142780 142450 141895 141052 
2923.57  140175 139570 139285 139383 140091 141257 
2946.71  142161 142351 142216 142331 142700 142952 
2969.85  142848 142372 141661 140901 140153 139409 
2992.99  138826 138576 138484 138168 137464 136432 
3016.14  135195 134022 133242 132858 132519 131991 
3039.28  131380 130861 130477 130238 130181 130358 
3062.42  130812 131535 132442 133398 134245 134883 
3085.56  135513 136607 138379 140387 141912 142630 
3108.70  142709 142425 141974 141522 141179 140971 
3131.85  140894 140963 141163 141404 141564 141570 
3154.99  141397 141007 140351 139473 138556 137810 
3178.13  137347 137193 137336 137700 138126 138462 
3201.27  138684 138855 138976 138974 138845 138680 
3224.41  138511 138246 137832 137344 136858 136333 
3247.55  135705 135006 134306 133607 132859 132043 
3270.70  131185 130288 129315 128264 127193 126145 
3293.84  125117 124148 123328 122705 122274 122052 
3316.98  122045 122156 122243 122270 122301 122353 
3340.12  122353 122235 122018 121752 121435 121030 
3363.26  120561 120085 119558 118850 117931 116904 
3386.40  115845 114775 113807 113158 112984 113283 
3409.55  113953 114880 115957 117070 118152 119227 
3432.69  120310 121318 122209 123122 124227 125488 
3455.83  126747 127946 129141 130348 131479 132479 
3478.97  133445 134498 135590 136564 137370 138053 
3502.11  138643 139212 139869 140574 141129 141478 
3525.25  141838 142407 143070 143584 143880 144120 
3548.40  144534 145104 145537 145644 145620 145929 
3571.54  146641 147330 147710 147787 147773 147928 
3594.68  148302 148732 149018 149063 148971 149038 
3617.82  149401 149786 149960 150133 150581 151023 
3640.96  151056 150629 150239 150533 151271 151904 
3664.11  152078 151571 150765 150799 151558 151997 
3687.25  151853 151762 152166 152509 152292 151722 
3710.39  151437 151576 151721 151668 151461 151102 
3733.53  150690 150511 150559 150533 150503 150896 
3756.67  151579 152109 152378 152567 152776 152883 
3779.81  152859 152888 153033 153051 152723 152211 
3802.96  152048 152296 152419 152095 151538 151395 
3826.10  151659 151682 151213 150845 151138 151492 
3849.24  151361 151012 151025 151144 150961 150731 
3872.38  150855 151069 151047 150982 151151 151305 
3895.52  151092 150691 150722 151192 151458 151289 
3918.66  150988 150851 150766 150645 150652 150778 
3941.81  150791 150681 150676 150807 150905 150928 
3964.95  150956 151021 151110 151219 151316 151375 
3988.09  151441 151552 151661 151683 
##END= 
