##TITLE= Mattson Instruments
##JCAMP_DX= 4.24
##OWNER= 
##ORIGIN= 
##DATA TYPE= INFRARED SPECTRUM
##YUNITS= % Transmittance
##XUNITS= 1/CM
##FIRSTX= 401.12365566
##FIRSTY= 48.33747482
##LASTX= 3999.66568195
##XFACTOR= 1.00000000
##YFACTOR= 0.00099902
##MINY= 6.50041866
##MAXY= 71.97026824
##DELTAX= 3.85695822
##NPOINTS= 934
##XYDATA= (X++(Y..Y))
401.12  48384 50944 52986 54566 55696 56064 
424.26  55268 52950 48865 43353 37740 34002 
447.40  33618 36586 41488 46300 49702 51782 
470.54  53343 55048 57205 59739 62204 64123 
493.69  65314 65769 65477 64475 62851 60613 
516.83  57656 53757 48567 42033 35250 30640 
539.97  30542 35442 43655 52465 59719 64751 
563.11  67966 69959 71146 71798 72040 71885 
586.25  71372 70610 69689 68631 67405 65970 
609.39  64272 62170 59463 55914 51157 45096 
632.54  39138 36497 39854 48302 57664 64410 
655.68  67955 69366 69546 68887 67608 65731 
678.82  62879 58621 53597 50140 50790 55635 
701.96  61839 66389 68546 69251 69316 68972 
725.10  68346 67518 66463 65177 63446 60864 
748.24  57957 56471 57191 58496 58559 57831 
771.39  57932 59084 60031 59830 58630 56847 
794.53  54341 50897 47578 46469 47808 48745 
817.67  47273 45865 48101 53150 56974 57662 
840.81  56476 54769 52655 49810 45849 40925 
863.95  36936 36658 40845 47422 53824 58830 
887.10  62131 63642 63718 63103 62316 61440 
910.24  60464 59393 58137 56611 54728 52127 
933.38  48469 44526 42511 44374 49624 55474 
956.52  59361 60834 60955 60677 60272 59740 
979.66  59064 58179 57097 56017 55144 54550 
1002.80  54299 54472 54931 55263 55147 54635 
1025.95  53923 53049 51964 50648 48973 46701 
1049.09  43703 40043 36157 33369 33657 37808 
1072.23  44002 49184 51768 52316 51885 50762 
1095.37  48927 47031 46147 46567 47534 48004 
1118.51  47408 45793 43415 40530 37678 35909 
1141.65  36292 38948 42661 45719 47231 47499 
1164.80  47228 46760 46129 45350 44313 42699 
1187.94  40408 38013 36533 36765 38793 41852 
1211.08  44618 46050 46107 45460 44647 43778 
1234.22  42844 41879 40862 39718 38365 36751 
1257.36  34932 33167 31832 31172 30993 30644 
1280.51  29418 26950 23377 19738 18186 20601 
1303.65  26263 31862 34543 34232 32598 30781 
1326.79  28817 26470 23625 20199 16765 15212 
1349.93  17541 23334 29360 32422 31944 29362 
1373.07  26059 22610 19264 16299 14080 13108 
1396.21  13872 16334 19442 21387 20850 18154 
1419.36  15088 13656 14958 18777 23746 28195 
1442.50  31308 33299 34567 35216 35349 35170 
1465.64  34732 33947 32852 31625 30394 29172 
1488.78  27916 26582 25142 23576 21863 20014 
1511.92  18079 16138 14381 13099 12435 12169 
1535.06  11926 11601 11483 11881 12692 13394 
1558.21  13444 12672 11331 9818 8455 7428 
1581.35  6790 6506 6513 6714 6990 7258 
1604.49  7499 7749 8089 8599 9334 10338 
1627.63  11655 13271 15047 16751 18212 19483 
1650.77  20829 22499 24478 26540 28487 30252 
1673.91  31825 33216 34469 35648 36775 37850 
1697.06  38922 40082 41347 42630 43851 45003 
1720.20  46104 47128 48036 48846 49611 50365 
1743.34  51111 51857 52622 53401 54158 54870 
1766.48  55541 56206 56894 57594 58274 58911 
1789.62  59499 60038 60518 60938 61301 61602 
1812.77  61840 62027 62182 62325 62470 62656 
1835.91  62928 63282 63646 63926 64059 64044 
1859.05  63911 63714 63502 63305 63120 62933 
1882.19  62749 62615 62578 62625 62691 62712 
1905.33  62667 62565 62422 62238 61987 61655 
1928.47  61270 60904 60622 60433 60288 60125 
1951.62  59891 59561 59139 58662 58175 57701 
1974.76  57233 56764 56313 55920 55606 55340 
1997.90  55050 54676 54210 53678 53095 52459 
2021.04  51757 50982 50139 49246 48326 47401 
2044.18  46480 45575 44700 43878 43132 42480 
2067.32  41922 41458 41110 40926 40948 41186 
2090.47  41618 42210 42931 43751 44649 45619 
2113.61  46666 47775 48890 49929 50829 51559 
2136.75  52119 52527 52816 53025 53176 53273 
2159.89  53321 53330 53304 53233 53101 52903 
2183.03  52653 52361 52030 51671 51307 50968 
2206.18  50666 50396 50147 49921 49715 49507 
2229.32  49257 48945 48579 48175 47734 47246 
2252.46  46717 46171 45621 45084 44592 44189 
2275.60  43895 43688 43536 43417 43305 43170 
2298.74  42996 42795 42577 42332 42041 41697 
2321.88  41300 40862 40402 39943 39506 39100 
2345.03  38710 38299 37837 37343 36870 36442 
2368.17  36038 35621 35170 34690 34202 33743 
2391.31  33346 33020 32755 32539 32353 32169 
2414.45  31958 31697 31380 31015 30613 30187 
2437.59  29744 29287 28821 28358 27920 27527 
2460.73  27181 26868 26566 26261 25953 25649 
2483.88  25359 25086 24822 24556 24295 24074 
2507.02  23943 23938 24050 24209 24287 24144 
2530.16  23702 23007 22225 21530 21009 20732 
2553.30  20865 21531 22537 23430 23892 23984 
2576.44  23933 23856 23749 23621 23513 23448 
2599.58  23423 23429 23448 23452 23416 23322 
2622.73  23164 22954 22741 22590 22563 22695 
2645.87  22979 23366 23783 24156 24435 24599 
2669.01  24654 24626 24555 24479 24419 24365 
2692.15  24296 24199 24088 23985 23906 23858 
2715.29  23851 23886 23949 24020 24093 24166 
2738.44  24222 24231 24160 23990 23718 23354 
2761.58  22914 22427 21941 21514 21200 21024 
2784.72  20974 21004 21059 21094 21090 21050 
2807.86  20990 20930 20886 20864 20858 20849 
2831.00  20824 20777 20713 20635 20537 20411 
2854.14  20254 20080 19909 19753 19612 19470 
2877.29  19307 19116 18910 18711 18530 18371 
2900.43  18248 18175 18143 18118 18060 17951 
2923.57  17805 17657 17542 17469 17411 17316 
2946.71  17151 16921 16663 16437 16317 16338 
2969.85  16449 16544 16579 16621 16730 16871 
2992.99  16988 17134 17441 17971 18658 19401 
3016.14  20139 20853 21532 22165 22738 23234 
3039.28  23650 24006 24321 24598 24841 25064 
3062.42  25289 25533 25808 26129 26507 26942 
3085.56  27410 27861 28256 28580 28836 29028 
3108.70  29163 29252 29303 29314 29281 29191 
3131.85  29033 28805 28522 28205 27867 27518 
3154.99  27184 26892 26652 26465 26342 26302 
3178.13  26352 26491 26725 27067 27531 28129 
3201.27  28859 29692 30594 31535 32496 33450 
3224.41  34376 35279 36191 37145 38145 39179 
3247.55  40244 41345 42474 43620 44788 45992 
3270.70  47239 48514 49789 51030 52212 53326 
3293.84  54371 55339 56226 57051 57826 58544 
3316.98  59194 59775 60302 60783 61218 61619 
3340.12  61992 62336 62651 62944 63227 63492 
3363.26  63726 63929 64105 64252 64363 64443 
3386.40  64521 64629 64781 64963 65145 65309 
3409.55  65450 65570 65684 65809 65945 66078 
3432.69  66191 66295 66403 66514 66611 66694 
3455.83  66777 66871 66958 67022 67059 67073 
3478.97  67069 67053 67044 67060 67103 67165 
3502.11  67240 67335 67454 67590 67722 67831 
3525.25  67911 67964 67997 68024 68056 68087 
3548.40  68106 68121 68160 68232 68322 68408 
3571.54  68480 68531 68550 68537 68508 68475 
3594.68  68442 68411 68395 68401 68432 68490 
3617.82  68564 68622 68643 68642 68647 68653 
3640.96  68630 68583 68556 68583 68647 68702 
3664.11  68712 68684 68669 68708 68762 68763 
3687.25  68713 68682 68703 68726 68705 68657 
3710.39  68625 68618 68622 68635 68652 68662 
3733.53  68653 68620 68557 68472 68394 68348 
3756.67  68322 68295 68272 68276 68313 68366 
3779.81  68423 68480 68521 68515 68460 68398 
3802.96  68369 68353 68301 68202 68103 68045 
3826.10  68019 67982 67931 67914 67951 67990 
3849.24  67990 67992 68040 68087 68073 68026 
3872.38  68008 68010 67989 67944 67907 67880 
3895.52  67835 67770 67720 67712 67732 67740 
3918.66  67720 67688 67656 67604 67521 67423 
3941.81  67341 67288 67258 67232 67207 67199 
3964.95  67213 67222 67204 67162 67103 67021 
3988.09  66917 66811 66710 66594 
##END= 
