##TITLE= Mattson Instruments
##JCAMP_DX= 4.24
##OWNER= 
##ORIGIN= 
##DATA TYPE= INFRARED SPECTRUM
##YUNITS= % Transmittance
##XUNITS= 1/CM
##FIRSTX= 399.19517655
##FIRSTY= 47.31214141
##LASTX= 3999.66568195
##XFACTOR= 1.00000000
##YFACTOR= 0.00116620
##MINY= 14.61356735
##MAXY= 91.03971862
##DELTAX= 1.92847911
##NPOINTS= 1868
##XYDATA= (X++(Y..Y))
399.19  40569 40750 41701 43217 45377 47834 
410.76  49896 51320 52309 52993 53548 54315 
422.33  55297 56128 56685 57182 57683 58065 
433.90  58334 58575 58796 59000 59213 59428 
445.47  59625 59795 59921 60008 60096 60204 
457.04  60339 60498 60607 60585 60516 60550 
468.62  60679 60787 60833 60838 60810 60775 
480.19  60775 60795 60786 60729 60635 60541 
491.76  60499 60520 60534 60459 60297 60123 
503.33  59997 59915 59834 59705 59491 59205 
514.90  58912 58674 58488 58310 58137 58049 
526.47  58180 58599 59212 59811 60248 60522 
538.04  60692 60797 60866 60915 60937 60920 
549.61  60867 60789 60698 60590 60423 60162 
561.18  59831 59458 59045 58647 58392 58357 
572.75  58511 58788 59129 59460 59720 59898 
584.32  59997 60028 60027 60017 59972 59855 
595.90  59655 59382 59064 58690 58129 57245 
607.47  55932 53869 50697 47054 44796 45102 
619.04  47079 48989 50103 50802 51491 52145 
630.61  52685 53158 53600 54024 54453 54875 
642.18  55246 55566 55867 56167 56476 56806 
653.75  57163 57542 57953 58418 58944 59501 
665.32  60042 60542 60990 61361 61623 61771 
676.89  61829 61816 61725 61555 61315 61004 
688.46  60585 60015 59259 58262 56960 55303 
700.03  53240 50694 47565 43638 38501 31970 
711.60  24815 18713 15211 14916 17693 23019 
723.17  29913 37048 43335 48327 52067 54778 
734.75  56731 58163 59212 59950 60446 60767 
746.32  60955 61032 61000 60847 60560 60146 
757.89  59648 59124 58626 58172 57769 57429 
769.46  57172 56996 56869 56736 56541 56240 
781.03  55804 55203 54410 53374 52001 50168 
792.60  47743 44612 40740 36307 31783 27836 
804.17  25093 23905 24260 25889 28457 31661 
815.74  35233 38937 42588 46034 49139 51819 
827.31  54063 55913 57428 58667 59678 60496 
838.88  61156 61702 62179 62601 62960 63240 
850.45  63445 63578 63632 63603 63497 63314 
862.03  63043 62686 62247 61712 61059 60296 
873.60  59447 58520 57502 56370 55079 53580 
885.17  51838 49837 47580 45106 42487 39824 
896.74  37271 35025 33297 32413 32873 35029 
908.31  38586 42615 46091 48316 48994 48350 
919.88  47238 46727 47338 48848 50797 52923 
931.45  55078 57040 58606 59711 60371 60576 
943.02  60322 59739 59151 58918 59188 59792 
954.59  60409 60774 60744 60227 59143 57469 
966.16  55393 53449 52392 52708 54205 56159 
977.73  57865 59026 59706 60107 60404 60688 
989.30  60972 61232 61431 61537 61527 61373 
1000.88  61025 60442 59578 58315 56498 54054 
1012.45  51029 47568 43853 39798 34960 29493 
1024.02  25256 24838 28806 34662 38958 39871 
1035.59  37689 33918 30267 27734 26333 25994 
1047.16  27362 31063 36548 42334 47235 50926 
1058.73  53582 55460 56769 57648 58164 58339 
1070.30  58161 57582 56539 54944 52723 49971 
1081.87  47108 44781 43551 43585 44586 45944 
1093.44  46944 46951 45668 43395 40973 39321 
1105.01  38929 39596 40469 40499 39355 37995 
1116.58  37916 39638 42237 44420 45755 46710 
1128.16  47852 49256 50547 51281 51231 50411 
1139.73  48943 46975 44680 42236 39817 37626 
1151.30  35882 34758 34331 34566 35305 36293 
1162.87  37238 37866 37941 37308 36017 34445 
1174.44  33207 32738 32920 33155 32844 31800 
1186.01  30346 29144 28842 29664 31230 32797 
1197.58  33734 33832 33244 32252 31096 29969 
1209.15  29034 28410 28106 28029 28081 28283 
1220.72  28787 29747 31196 33007 34956 36823 
1232.29  38457 39783 40779 41445 41805 41920 
1243.86  41938 42075 42499 43221 44114 45041 
1255.43  45944 46826 47700 48571 49443 50312 
1267.01  51156 51930 52584 53063 53313 53282 
1278.58  52928 52226 51179 49891 48643 47849 
1290.15  47816 48513 49588 50594 51176 51087 
1301.72  50105 47934 44272 39215 33660 29045 
1313.29  26415 25840 26886 29351 33195 37960 
1324.86  42736 46745 49675 51501 52276 51968 
1336.43  50282 47012 42940 39949 39554 41432 
1348.00  43847 45332 45542 44713 42996 40560 
1359.57  38019 36438 36761 39176 43012 47226 
1371.14  50980 53897 55977 57362 58178 58536 
1382.71  58609 58634 58760 58931 58977 58820 
1394.29  58523 58166 57739 57156 56273 54916 
1405.86  52900 49916 45470 39514 33378 29306 
1417.43  28287 28660 27643 24202 19964 17585 
1429.00  18661 22829 28305 33134 36110 36892 
1440.57  35710 33269 30676 28901 28074 27518 
1452.14  26576 25292 24301 24252 25415 27705 
1463.71  30745 33728 35516 35275 33110 30036 
1475.28  27413 26478 28113 32399 38274 44106 
1486.85  48819 52316 54941 56891 58255 59284 
1498.42  60277 61190 61693 61753 61827 62267 
1509.99  62867 63261 63409 63445 63421 63403 
1521.57  63534 63871 64309 64688 64916 65038 
1533.14  65133 65121 64864 64507 64412 64668 
1544.71  64981 65078 64952 64687 64250 63501 
1556.28  62391 61166 60172 59331 58070 55900 
1567.85  52646 48034 41843 35049 30205 29650 
1579.42  33319 38825 43371 45353 44983 44064 
1590.99  44746 47858 52401 56706 59825 61768 
1602.56  62922 63585 63948 64164 64278 64192 
1614.13  63889 63601 63557 63657 63651 63512 
1625.70  63390 63318 63166 62815 62297 61830 
1637.27  61659 61743 61761 61566 61400 61417 
1648.84  61331 60926 60587 60798 61343 61635 
1660.42  61589 61573 61704 61785 61801 61915 
1671.99  62109 62295 62561 62931 63153 63072 
1683.56  62983 63261 63832 64284 64390 64279 
1695.13  64182 64236 64516 65046 65716 66333 
1706.70  66820 67235 67565 67668 67524 67399 
1718.27  67571 67954 68220 68252 68206 68135 
1729.84  67888 67503 67309 67464 67725 67856 
1741.41  67926 68050 68145 68108 68028 68064 
1752.98  68228 68412 68545 68659 68809 69014 
1764.55  69233 69380 69394 69358 69439 69685 
1776.12  69958 70123 70183 70219 70287 70369 
1787.70  70391 70324 70278 70380 70573 70695 
1799.27  70720 70762 70869 70964 70992 70993 
1810.84  71016 71055 71082 71093 71084 71044 
1822.41  70971 70885 70793 70704 70650 70625 
1833.98  70583 70504 70410 70283 70100 69949 
1845.55  69937 70020 70068 70048 70018 69992 
1857.12  69937 69852 69751 69607 69378 69088 
1868.69  68827 68661 68564 68491 68448 68468 
1880.26  68537 68613 68655 68636 68561 68458 
1891.83  68340 68185 67990 67776 67552 67319 
1903.40  67096 66905 66755 66662 66631 66632 
1914.97  66628 66626 66651 66690 66716 66730 
1926.55  66758 66818 66914 67055 67242 67460 
1938.12  67681 67890 68099 68318 68531 68708 
1949.69  68844 68948 69018 69049 69057 69066 
1961.26  69071 69052 69017 68998 69012 69049 
1972.83  69099 69164 69249 69354 69475 69604 
1984.40  69734 69855 69965 70071 70188 70319 
1995.97  70446 70550 70626 70684 70731 70772 
2007.54  70806 70837 70864 70885 70906 70939 
2019.11  70989 71047 71097 71132 71158 71184 
2030.68  71215 71248 71275 71289 71289 71282 
2042.25  71271 71254 71229 71201 71171 71140 
2053.83  71107 71075 71043 71011 70978 70951 
2065.40  70936 70937 70949 70960 70959 70940 
2076.97  70906 70867 70833 70811 70798 70793 
2088.54  70798 70814 70832 70840 70832 70811 
2100.11  70786 70756 70720 70681 70641 70603 
2111.68  70568 70540 70523 70520 70532 70559 
2123.25  70597 70643 70687 70723 70748 70768 
2134.82  70785 70802 70819 70836 70854 70877 
2146.39  70904 70934 70963 70990 71014 71030 
2157.96  71038 71043 71047 71047 71043 71042 
2169.53  71050 71061 71072 71083 71089 71084 
2181.10  71069 71052 71033 71006 70974 70951 
2192.68  70944 70947 70953 70959 70962 70956 
2204.25  70936 70901 70854 70798 70741 70693 
2215.82  70655 70619 70579 70537 70498 70465 
2227.39  70446 70447 70473 70519 70577 70645 
2238.96  70719 70796 70867 70922 70959 70984 
2250.53  70999 71003 70986 70947 70892 70841 
2262.10  70809 70805 70832 70891 70983 71097 
2273.67  71220 71339 71446 71538 71616 71675 
2285.24  71716 71751 71789 71825 71845 71845 
2296.81  71832 71813 71791 71771 71754 71740 
2308.38  71729 71718 71698 71666 71621 71567 
2319.96  71505 71430 71343 71252 71165 71089 
2331.53  71029 70988 70965 70955 70950 70946 
2343.10  70950 70971 71005 71026 71012 70962 
2354.67  70896 70827 70764 70713 70688 70698 
2366.24  70744 70817 70909 71009 71109 71202 
2377.81  71285 71361 71436 71508 71571 71622 
2389.38  71660 71685 71698 71705 71712 71727 
2400.95  71750 71780 71816 71860 71910 71956 
2412.52  71986 71999 71996 71973 71930 71875 
2424.09  71824 71789 71773 71778 71800 71829 
2435.66  71851 71859 71851 71831 71798 71752 
2447.23  71694 71623 71540 71447 71357 71288 
2458.81  71250 71234 71225 71216 71204 71190 
2470.38  71174 71154 71127 71091 71041 70976 
2481.95  70890 70778 70645 70499 70357 70242 
2493.52  70172 70149 70166 70211 70265 70308 
2505.09  70328 70324 70297 70250 70190 70128 
2516.66  70057 69965 69847 69709 69572 69461 
2528.23  69383 69328 69281 69236 69196 69157 
2539.80  69098 68997 68848 68659 68434 68183 
2551.37  67932 67716 67556 67451 67393 67382 
2562.94  67414 67476 67552 67630 67700 67753 
2574.51  67782 67783 67757 67710 67654 67597 
2586.09  67547 67508 67478 67456 67444 67441 
2597.66  67445 67447 67437 67403 67323 67186 
2609.23  66998 66785 66575 66397 66279 66236 
2620.80  66254 66292 66318 66322 66307 66268 
2632.37  66198 66088 65930 65706 65389 64955 
2643.94  64391 63691 62849 61853 60684 59350 
2655.51  57915 56485 55139 53889 52711 51644 
2667.08  50854 50573 50951 51950 53366 54938 
2678.65  56442 57724 58694 59316 59596 59574 
2690.22  59302 58822 58182 57437 56644 55841 
2701.79  55035 54216 53389 52613 51996 51651 
2713.37  51625 51876 52297 52763 53161 53395 
2724.94  53400 53139 52604 51801 50755 49501 
2736.51  48060 46425 44565 42440 40023 37329 
2748.08  34447 31538 28775 26255 23964 21835 
2759.65  19850 18073 16589 15418 14500 13776 
2771.22  13232 12867 12653 12544 12530 12656 
2782.79  12986 13547 14305 15166 16023 16810 
2794.36  17507 18136 18737 19364 20059 20841 
2805.93  21705 22633 23600 24578 25539 26445 
2817.50  27233 27812 28071 27905 27276 26280 
2829.07  25160 24231 23756 23862 24516 25587 
2840.64  26928 28425 29978 31470 32778 33814 
2852.22  34563 35058 35327 35357 35115 34583 
2863.79  33782 32790 31720 30672 29698 28878 
2875.36  28393 28450 29115 30232 31513 32681 
2886.93  33549 34026 34090 33757 33071 32096 
2898.50  30924 29656 28388 27209 26214 25505 
2910.07  25149 25129 25332 25605 25825 25929 
2921.64  25868 25579 24986 24034 22719 21119 
2933.21  19392 17733 16312 15239 14570 14309 
2944.78  14391 14696 15088 15462 15743 15881 
2956.35  15851 15646 15274 14781 14264 13860 
2967.92  13719 13966 14691 15937 17704 19933 
2979.50  22508 25274 28056 30673 32964 34815 
2991.07  36213 37258 38147 39104 40266 41624 
3002.64  43033 44319 45356 46077 46442 46449 
3014.21  46151 45637 44954 44084 43020 41860 
3025.78  40822 40158 40044 40504 41423 42602 
3037.35  43839 44968 45860 46427 46632 46542 
3048.92  46371 46422 46928 47929 49301 50885 
3060.49  52541 54144 55575 56733 57550 57987 
3072.06  58048 57777 57230 56511 55829 55473 
3083.63  55671 56456 57659 59022 60323 61437 
3095.20  62333 63032 63563 63955 64245 64472 
3106.77  64655 64797 64901 64979 65039 65081 
3118.35  65101 65106 65103 65098 65091 65077 
3129.92  65045 64996 64940 64882 64812 64721 
3141.49  64608 64481 64355 64258 64215 64222 
3153.06  64253 64279 64276 64231 64145 64037 
3164.63  63927 63815 63702 63599 63510 63422 
3176.20  63327 63235 63150 63060 62956 62841 
3187.77  62718 62581 62429 62271 62111 61957 
3199.34  61821 61704 61596 61491 61393 61304 
3210.91  61225 61158 61098 61032 60959 60891 
3222.48  60831 60771 60705 60643 60591 60538 
3234.05  60473 60402 60334 60261 60176 60086 
3245.63  60007 59938 59867 59785 59696 59606 
3257.20  59516 59429 59345 59261 59176 59089 
3268.77  59002 58907 58805 58701 58604 58520 
3280.34  58445 58376 58303 58223 58144 58069 
3291.91  57994 57914 57832 57749 57667 57596 
3303.48  57538 57474 57388 57281 57171 57071 
3315.05  56984 56899 56802 56696 56589 56479 
3326.62  56357 56228 56100 55971 55836 55700 
3338.19  55568 55433 55283 55123 54968 54817 
3349.76  54661 54498 54337 54176 54007 53833 
3361.33  53665 53508 53361 53218 53071 52913 
3372.90  52754 52610 52483 52367 52261 52166 
3384.48  52078 51998 51930 51861 51776 51687 
3396.05  51626 51597 51568 51517 51463 51440 
3407.62  51446 51452 51448 51449 51468 51498 
3419.19  51523 51541 51560 51593 51640 51697 
3430.76  51761 51834 51912 51980 52032 52082 
3442.33  52149 52231 52319 52410 52510 52617 
3453.90  52723 52833 52954 53080 53205 53336 
3465.47  53483 53633 53770 53898 54040 54209 
3477.04  54390 54564 54730 54912 55112 55317 
3488.61  55516 55720 55930 56139 56352 56576 
3500.18  56808 57037 57262 57489 57723 57966 
3511.76  58215 58460 58691 58910 59128 59347 
3523.33  59561 59773 59995 60230 60465 60693 
3534.90  60912 61129 61346 61562 61769 61973 
3546.47  62187 62412 62639 62874 63121 63364 
3558.04  63595 63821 64015 64151 64291 64533 
3569.61  64868 65193 65457 65695 65939 66192 
3581.18  66434 66629 66771 66953 67251 67603 
3592.75  67902 68145 68398 68672 68942 69189 
3604.32  69383 69509 69637 69851 70140 70412 
3615.89  70600 70750 70993 71346 71584 71536 
3627.46  71415 71570 71984 72360 72564 72682 
3639.04  72785 72873 72879 72696 72378 72212 
3650.61  72338 72531 72580 72573 72641 72743 
3662.18  72788 72728 72539 72310 72195 72211 
3673.75  72300 72540 73042 73703 74298 74694 
3685.32  74892 75022 75295 75772 76252 76540 
3696.89  76660 76719 76778 76877 76985 76960 
3708.46  76775 76648 76766 77029 77218 77261 
3720.03  77222 77193 77217 77266 77275 77197 
3731.60  77023 76856 76889 77125 77213 76920 
3743.17  76543 76460 76544 76531 76583 76930 
3754.74  77352 77529 77540 77614 77724 77732 
3766.31  77666 77647 77724 77854 77940 77917 
3777.89  77853 77859 77924 77962 77980 78022 
3789.46  78040 77990 77926 77857 77686 77451 
3801.03  77350 77424 77516 77603 77767 77885 
3812.60  77759 77503 77386 77423 77484 77599 
3824.17  77806 77957 77944 77860 77760 77556 
3835.74  77287 77192 77354 77579 77720 77814 
3847.31  77780 77391 76761 76466 76835 77456 
3858.88  77749 77679 77574 77549 77476 77359 
3870.45  77368 77538 77705 77758 77750 77738 
3882.02  77706 77665 77671 77714 77755 77822 
3893.59  77931 77980 77886 77730 77653 77702 
3905.17  77836 77980 78064 78059 77981 77870 
3916.74  77785 77777 77828 77875 77896 77905 
3928.31  77897 77869 77858 77883 77903 77879 
3939.88  77836 77823 77841 77845 77812 77769 
3951.45  77748 77742 77727 77698 77662 77624 
3963.02  77591 77567 77555 77552 77544 77515 
3974.59  77484 77484 77511 77514 77470 77411 
3986.16  77371 77364 77379 77400 77420 77447 
3997.73  77489 77531 
##END= 
