##TITLE= Mattson Instruments
##JCAMP_DX= 4.24
##OWNER= 
##ORIGIN= 
##DATA TYPE= INFRARED SPECTRUM
##YUNITS= % Transmittance
##XUNITS= 1/CM
##FIRSTX= 401.12781972
##FIRSTY= 24.81370735
##LASTX= 3999.70720246
##XFACTOR= 1.00000000
##YFACTOR= 0.00066565
##MINY= 0.00000102
##MAXY= 43.62282562
##DELTAX= 3.85699826
##NPOINTS= 934
##XYDATA= (X++(Y..Y))
401.12  37277 38742 39374 39027 38240 38068 
424.26  38603 38849 38337 37759 38076 39213 
447.41  40206 40499 40408 40429 40557 40389 
470.55  39681 38666 37880 37653 37804 37776 
493.69  37277 36594 36443 36823 37231 37265 
516.83  36677 35296 33265 31034 29095 28063 
539.97  28604 30686 33162 34767 35445 36104 
563.12  37277 38573 39522 40124 40564 40743 
586.26  40530 40043 39322 38261 37277 37277 
609.40  38868 40933 42215 42574 42644 42694 
632.54  42576 42276 41805 40948 39730 38707 
655.68  38180 37735 37277 37636 39199 40762 
678.83  41321 41163 40973 40889 40522 39349 
701.97  37277 36326 37277 39604 42860 45381 
725.11  46817 47591 47944 47968 47845 47657 
748.25  47268 46508 45208 43189 40653 38560 
771.39  38030 39052 40357 40943 40988 40829 
794.54  40166 38855 37277 35636 33748 32735 
817.68  34084 37277 40174 41567 42262 42689 
840.82  42132 40780 40201 40638 40024 37277 
863.96  33965 33106 34303 35793 37277 39695 
887.10  42337 44400 45552 45502 44186 42849 
910.25  43228 45361 47645 48964 49462 49593 
933.39  49655 49982 50688 51427 51831 51882 
956.53  51728 51482 51244 51045 50850 50769 
979.67  51060 51724 52350 52577 52476 52247 
1002.81  51845 51213 50393 49090 46916 44612 
1025.96  43949 45585 48007 49416 49536 48964 
1049.10  48139 47555 47748 48541 49148 49190 
1072.24  48903 48507 47986 47358 46670 45854 
1095.38  44876 43949 43375 43178 43018 42568 
1118.52  41859 41091 40259 39277 38316 37649 
1141.67  37277 37075 36705 35592 33083 29372 
1164.81  25352 21197 16603 13012 13484 19027 
1187.95  26819 33290 37277 38991 39247 38429 
1211.09  37277 36501 35400 33388 30566 27830 
1234.23  26235 26058 26358 25805 24225 22879 
1257.38  22748 23300 23911 25573 29325 33805 
1280.52  36495 36631 34827 31133 26083 22476 
1303.66  23091 26989 30450 31481 31495 32297 
1326.80  33294 32912 31426 30947 32613 35082 
1349.94  36524 36550 35790 34733 33375 31632 
1373.09  29600 27193 23910 19644 15602 13300 
1396.23  12347 11025 9322 8773 9726 11238 
1419.37  12445 12484 10152 5288 529 0 
1442.51  4186 9657 13434 14563 14174 13896 
1465.65  13064 10564 8597 10947 16191 20234 
1488.80  21752 22573 24193 25799 26681 27235 
1511.94  27293 25706 22359 19516 19224 20169 
1535.08  20697 21262 23180 25293 25830 24539 
1558.22  22502 21223 20226 18577 16620 15299 
1581.36  14435 13119 11393 10432 11201 13349 
1604.51  15730 17433 18141 18043 17990 18960 
1627.65  20880 23214 26050 29624 33466 37277 
1650.79  41483 46079 49724 51865 52984 53941 
1673.93  55047 55805 56272 57261 58558 59022 
1697.07  58618 58968 60579 61726 61685 61453 
1720.22  62157 63010 62978 62356 62253 62766 
1743.36  63066 63084 63352 63885 64171 63978 
1766.50  63517 63234 63492 64125 64620 64724 
1789.64  64566 64456 64604 64943 65232 65371 
1812.78  65482 65534 65235 64591 64165 64273 
1835.93  64411 64154 63791 63814 64117 64222 
1859.07  63888 63262 62777 62803 63184 63419 
1882.21  63266 62908 62649 62584 62584 62504 
1905.35  62306 62046 61768 61486 61283 61256 
1928.49  61319 61246 60950 60588 60372 60343 
1951.64  60374 60326 60169 59981 59845 59779 
1974.78  59750 59699 59555 59317 59081 58940 
1997.92  58871 58791 58665 58509 58359 58253 
2021.06  58219 58240 58273 58292 58303 58318 
2044.20  58356 58427 58515 58582 58608 58619 
2067.35  58646 58693 58755 58833 58919 59006 
2090.49  59097 59188 59244 59251 59230 59209 
2113.63  59182 59134 59068 58993 58905 58788 
2136.77  58645 58506 58384 58260 58108 57945 
2159.91  57799 57674 57551 57425 57310 57209 
2183.06  57109 57000 56886 56757 56605 56446 
2206.20  56308 56190 56074 55953 55827 55685 
2229.34  55521 55337 55134 54913 54689 54477 
2252.48  54270 54056 53830 53602 53395 53235 
2275.62  53129 53030 52853 52553 52152 51976 
2298.77  51800 51624 51448 51273 51097 50921 
2321.91  50745 50569 50394 50218 50042 49866 
2345.05  49690 49515 49339 49163 48987 48811 
2368.19  48635 48460 48284 48108 47932 47756 
2391.33  47581 47405 47285 47136 46976 46822 
2414.48  46677 46525 46359 46191 46027 45871 
2437.62  45731 45613 45512 45422 45325 45215 
2460.76  45115 45057 45053 45095 45171 45279 
2483.90  45394 45476 45503 45480 45425 45334 
2507.04  45210 45067 44922 44779 44630 44474 
2530.19  44321 44190 44094 44037 44014 44029 
2553.33  44091 44191 44297 44377 44440 44520 
2576.47  44622 44719 44789 44839 44862 44823 
2599.61  44704 44529 44343 44179 44040 43927 
2622.75  43843 43793 43764 43749 43749 43746 
2645.90  43699 43581 43411 43234 43078 42952 
2669.04  42855 42777 42709 42642 42564 42470 
2692.18  42381 42315 42275 42252 42253 42285 
2715.32  42333 42372 42391 42398 42395 42369 
2738.46  42311 42214 42068 41874 41646 41396 
2761.61  41141 40914 40745 40623 40515 40422 
2784.75  40379 40388 40405 40382 40313 40219 
2807.89  40114 40000 39881 39757 39627 39505 
2831.03  39405 39316 39219 39111 39006 38907 
2854.17  38816 38747 38722 38740 38763 38723 
2877.32  38591 38402 38201 38002 37797 37564 
2900.46  37277 36922 36591 36340 36157 35999 
2923.60  35839 35643 35401 35168 34994 34859 
2946.74  34698 34426 33974 33460 33214 33421 
2969.88  33836 34067 34010 33817 33595 33350 
2993.03  33094 32836 32554 32257 31980 31718 
3016.17  31427 31104 30782 30489 30241 29983 
3039.31  29580 28998 28481 28385 28751 29245 
3062.45  29540 29600 29562 29506 29430 29326 
3085.59  29188 29012 28818 28631 28464 28312 
3108.74  28163 27997 27807 27614 27441 27299 
3131.88  27187 27095 27001 26876 26714 26529 
3155.02  26341 26172 26049 26011 26065 26158 
3178.16  26220 26237 26230 26186 26058 25854 
3201.30  25663 25577 25615 25746 25952 26245 
3224.45  26614 26995 27320 27588 27865 28197 
3247.59  28548 28858 29119 29365 29602 29806 
3270.73  29979 30147 30322 30488 30629 30738 
3293.87  30817 30869 30890 30854 30749 30581 
3317.01  30346 30028 29642 29231 28809 28347 
3340.16  27820 27242 26667 26187 25887 25802 
3363.30  25941 26267 26656 26958 27133 27233 
3386.44  27291 27306 27329 27445 27669 27910 
3409.58  28076 28183 28304 28453 28581 28692 
3432.72  28856 29072 29270 29448 29693 30007 
3455.87  30273 30446 30620 30889 31200 31450 
3479.01  31645 31884 32210 32563 32869 33120 
3502.15  33372 33705 34129 34535 34788 34907 
3525.29  35089 35476 35950 36283 36403 36472 
3548.43  36722 37154 37453 37368 37116 37277 
3571.58  37923 38494 38540 38202 37955 38056 
3594.72  38359 38649 38816 38794 38628 38607 
3617.86  38919 39323 39622 40195 41324 42335 
3641.00  42506 41979 41793 42742 44175 45130 
3664.14  45164 44316 43435 43665 44522 44794 
3687.29  44388 44212 44639 44910 44529 43874 
3710.43  43585 43659 43642 43323 42728 41967 
3733.57  41340 41099 40989 40708 40612 41200 
3756.71  42049 42548 42703 42867 43073 43071 
3779.85  42930 42983 43162 42955 42115 41140 
3803.00  40887 41283 41397 40785 40008 39973 
3826.14  40388 40266 39475 39011 39408 39714 
3849.28  39304 38750 38801 38972 38706 38383 
3872.42  38520 38758 38640 38420 38522 38675 
3895.56  38379 37863 37932 38615 39065 38919 
3918.71  38564 38428 38444 38465 38522 38534 
3941.85  38376 38206 38239 38351 38333 38238 
3964.99  38202 38183 38106 38002 37918 37812 
3988.13  37669 37525 37402 37277 
##END= 
