##TITLE= Mattson Instruments
##JCAMP_DX= 4.24
##OWNER= 
##ORIGIN= 
##DATA TYPE= INFRARED SPECTRUM
##YUNITS= % Transmittance
##XUNITS= 1/CM
##FIRSTX= 401.12365566
##FIRSTY= 60.56229782
##LASTX= 3999.66568195
##XFACTOR= 1.00000000
##YFACTOR= 0.00049868
##MINY= 35.32719802
##MAXY= 68.00770568
##DELTAX= 3.85695822
##NPOINTS= 934
##XYDATA= (X++(Y..Y))
401.12  121445 117085 114310 117254 125319 133051 
424.26  136375 136134 135082 134413 133814 133034 
447.40  132314 131767 131126 130176 129106 128231 
470.54  127549 126785 125805 124761 123794 122821 
493.69  121734 120580 119376 117947 116211 114267 
516.83  112005 109204 106566 106033 109043 114501 
539.97  119459 121956 122270 121573 120556 119387 
563.11  118129 116797 115368 113866 112388 110991 
586.25  109624 108250 106902 105462 103753 101970 
609.39  100597 99719 98794 97150 94407 91096 
632.54  89332 91273 96235 100874 102962 103419 
655.68  103966 104868 105716 106416 106314 104121 
678.82  99933 96261 95805 98281 100677 100959 
701.96  100529 102399 107666 114608 120797 125081 
725.10  127555 128629 128566 127600 126022 124010 
748.24  121560 118693 115532 112240 109222 107270 
771.39  107015 108214 109741 110280 109388 108331 
794.53  109310 112883 116754 118394 118189 118608 
817.67  120837 123823 126311 128158 129560 130288 
840.81  130191 129853 130160 131258 132425 133058 
863.95  133272 133389 133460 133491 133555 133621 
887.10  133636 133588 133386 133027 132639 131964 
910.24  130508 128840 128526 130039 132019 133184 
933.38  133578 133667 133535 133238 132932 132630 
956.52  132298 131948 131494 130915 130383 129949 
979.66  129501 129078 128712 128178 127402 126733 
1002.80  126480 126538 126314 124883 122281 120654 
1025.95  122197 125825 128182 127960 126782 126034 
1049.09  125438 124620 123806 122887 121535 120168 
1072.23  119609 119899 120234 119965 119129 118059 
1095.37  116909 115574 113988 112212 110083 107434 
1118.51  105263 105734 109461 113411 113813 111046 
1141.65  109228 110957 114797 118002 119578 120163 
1164.80  120186 119158 116939 115092 115627 118213 
1187.94  120282 120275 119068 117996 117246 116527 
1211.08  115845 115235 114596 113911 113246 112613 
1234.22  111991 111325 110605 109988 109687 109689 
1257.36  109742 109635 109371 109047 108685 108284 
1280.51  107905 107409 106401 105019 104391 105393 
1303.65  107325 108713 109102 109075 108985 108669 
1326.79  108126 107635 107311 106982 106478 105750 
1349.93  104849 103896 102905 101701 100221 98609 
1373.07  96911 94978 92841 90799 89060 87618 
1396.21  86505 85984 86620 89028 93332 98919 
1419.36  104751 110018 114636 118754 121304 119887 
1442.50  114184 108609 108653 114668 121259 124171 
1465.64  124555 124721 124498 123188 121652 120716 
1488.78  119915 118955 118664 119506 120445 120231 
1511.92  119179 118432 118010 116898 114941 113471 
1535.06  113338 113296 111532 108833 107386 107161 
1558.21  106045 103077 99028 94329 90559 91594 
1581.35  98263 105079 106376 102601 97934 94148 
1604.49  90450 86844 84127 82159 80658 80518 
1627.63  82599 85938 88240 88301 87168 86030 
1650.77  84616 82622 81357 82244 85017 88295 
1673.91  91423 94751 98162 100843 102931 105572 
1697.06  108764 110911 111551 112366 114357 116365 
1720.20  117222 117909 119794 122358 123994 124440 
1743.34  124829 125711 126565 126942 127119 127592 
1766.48  128461 129371 129849 129894 130036 130608 
1789.62  131311 131698 131654 131278 130745 130423 
1812.77  130651 131378 132271 133006 133319 133280 
1835.91  133331 133701 134014 133872 133454 133179 
1859.05  133173 133300 133322 133032 132477 131870 
1882.19  131202 130335 129491 129107 129171 129259 
1905.33  129250 129452 129968 130443 130560 130394 
1928.47  130170 129990 129868 129701 129171 128117 
1951.62  127039 126710 127187 127738 127888 127928 
1974.76  128215 128589 128752 128714 128629 128522 
1997.90  128356 128155 127962 127795 127662 127548 
2021.04  127417 127263 127112 126974 126837 126689 
2044.18  126528 126351 126165 125985 125828 125692 
2067.32  125561 125431 125307 125191 125071 124943 
2090.47  124812 124672 124523 124386 124278 124189 
2113.61  124088 123964 123824 123688 123568 123461 
2136.75  123347 123216 123074 122936 122809 122686 
2159.89  122551 122395 122230 122077 121942 121810 
2183.03  121667 121514 121354 121190 121030 120877 
2206.18  120732 120590 120443 120283 120119 119966 
2229.32  119837 119722 119619 119523 119407 119244 
2252.46  119048 118861 118718 118628 118589 118575 
2275.60  118528 118422 118285 118163 118080 118036 
2298.74  118023 118049 117960 117871 117781 117692 
2321.88  117603 117514 117425 117335 117246 117157 
2345.03  117068 116979 116890 116800 116711 116622 
2368.17  116533 116444 116354 116265 116176 116087 
2391.31  115998 115921 115877 115825 115735 115611 
2414.45  115474 115342 115217 115088 114951 114819 
2437.59  114700 114592 114492 114398 114309 114230 
2460.73  114169 114129 114100 114063 114015 113957 
2483.88  113888 113807 113712 113602 113478 113336 
2507.02  113179 113016 112864 112744 112661 112609 
2530.16  112572 112537 112496 112447 112386 112314 
2553.30  112226 112128 112024 111915 111807 111707 
2576.44  111614 111522 111424 111312 111169 111007 
2599.58  110868 110772 110692 110597 110478 110340 
2622.73  110192 110064 109969 109880 109768 109639 
2645.87  109517 109402 109282 109158 109039 108921 
2669.01  108785 108624 108458 108306 108158 107996 
2692.15  107822 107649 107480 107308 107135 106967 
2715.29  106790 106575 106316 106035 105747 105446 
2738.44  105145 104883 104670 104449 104150 103770 
2761.58  103379 103060 102849 102728 102670 102674 
2784.72  102771 102956 103153 103249 103196 103066 
2807.86  102984 103015 103131 103260 103359 103417 
2831.00  103429 103388 103302 103196 103096 103008 
2854.14  102922 102834 102743 102644 102540 102449 
2877.29  102378 102303 102200 102077 101952 101816 
2900.43  101639 101409 101153 100911 100701 100502 
2923.57  100291 100071 99853 99633 99389 99130 
2946.71  98887 98668 98447 98209 97972 97736 
2969.85  97466 97169 96902 96684 96452 96146 
2992.99  95785 95430 95111 94800 94461 94097 
3016.14  93701 93186 92517 91883 91554 91527 
3039.28  91518 91309 90917 90417 89856 89385 
3062.42  89243 89450 89699 89697 89510 89413 
3085.56  89507 89628 89617 89453 89190 88878 
3108.70  88538 88156 87707 87194 86647 86037 
3131.85  85324 84519 83658 82764 81863 80973 
3154.99  80090 79212 78430 77903 77753 78021 
3178.13  78691 79698 80954 82373 83889 85417 
3201.27  86842 88071 89080 89920 90702 91505 
3224.41  92285 92909 93295 93461 93455 93308 
3247.55  93065 92775 92467 92138 91785 91429 
3270.70  91100 90788 90428 89943 89349 88746 
3293.84  88211 87741 87333 87024 86839 86678 
3316.98  86380 85858 85110 84148 82993 81692 
3340.12  80295 78781 77128 75392 73685 72177 
3363.26  71135 70841 71441 72820 74725 76923 
3386.40  79261 81642 84019 86381 88736 91039 
3409.55  93224 95267 97188 98990 100641 102103 
3432.69  103396 104562 105609 106491 107183 107737 
3455.83  108215 108618 108940 109225 109515 109779 
3478.97  109967 110084 110159 110200 110205 110200 
3502.11  110204 110193 110133 110049 110001 110006 
3525.25  109995 109910 109778 109676 109658 109680 
3548.40  109627 109476 109394 109554 109831 109894 
3571.54  109647 109384 109409 109692 109935 109928 
3594.68  109753 109661 109819 110176 110499 110574 
3617.82  110473 110536 110831 110842 110199 109495 
3640.96  109585 110380 110918 110555 109653 109057 
3664.11  109359 110378 111073 110641 109717 109389 
3687.25  109599 109453 108772 108306 108484 108927 
3710.39  109080 108806 108389 108251 108605 109196 
3733.53  109594 109854 110384 111030 110937 109783 
3756.67  108389 107601 107378 107216 106934 106721 
3779.81  106632 106487 106282 106372 106975 107670 
3802.96  107776 107328 107079 107381 107634 107182 
3826.10  106490 106540 107228 107382 106756 106606 
3849.24  107484 108115 107445 106442 106233 106381 
3872.38  106067 105582 105519 105621 105394 105082 
3895.52  105169 105441 105269 104627 104126 104070 
3918.66  104131 104000 103788 103649 103535 103433 
3941.81  103400 103365 103218 103024 102903 102838 
3964.95  102769 102700 102635 102550 102455 102374 
3988.09  102303 102224 102135 102054 
##END= 
